Wavelength (nm)	% Transmission
270	0.00366250
270.2	0.00363120
270.4	0.00360030
270.6	0.00356950
270.8	0.00353910
271	0.00350890
271.2	0.00347890
271.4	0.00344920
271.6	0.00341980
271.8	0.00339060
272	0.00336170
272.2	0.00333300
272.4	0.00330710
272.6	0.00328970
272.8	0.00327240
273	0.00325510
273.2	0.00323800
273.4	0.00322100
273.6	0.00320400
273.8	0.00318720
274	0.00317040
274.2	0.00315370
274.4	0.00313710
274.6	0.00312060
274.8	0.00310420
275	0.00308780
275.2	0.00224120
275.4	0.00162670
275.6	0.00132030
275.8	0.00124650
276	0.00117680
276.2	0.00111110
276.4	0.00104900
276.6	0.00099036
276.8	0.00093501
277	0.00088276
277.2	0.00083343
277.4	0.00078686
277.6	0.00074289
277.8	0.00070137
278	0.00066218
278.2	0.00062518
278.4	0.00059024
278.6	0.00056306
278.8	0.00058406
279	0.00060584
279.2	0.00062844
279.4	0.00065188
279.6	0.00067619
279.8	0.00070141
280	0.00072757
280.2	0.00075471
280.4	0.00078286
280.6	0.00081206
280.8	0.00084235
281	0.00087377
281.2	0.00090636
281.4	0.00094016
281.6	0.00097523
281.8	0.00099990
282	0.00102210
282.2	0.00104480
282.4	0.00106810
282.6	0.00109180
282.8	0.00111610
283	0.00114090
283.2	0.00116620
283.4	0.00119220
283.6	0.00121870
283.8	0.00124570
284	0.00127340
284.2	0.00130170
284.4	0.00133070
284.6	0.00136030
284.8	0.00132510
285	0.00122770
285.2	0.00113750
285.4	0.00105390
285.6	0.00097650
285.8	0.00090475
286	0.00083827
286.2	0.00077668
286.4	0.00071961
286.6	0.00066674
286.8	0.00061775
287	0.00057236
287.2	0.00053030
287.4	0.00049134
287.6	0.00045523
287.8	0.00043245
288	0.00045858
288.2	0.00048629
288.4	0.00051568
288.6	0.00054684
288.8	0.00057989
289	0.00061493
289.2	0.00065209
289.4	0.00069149
289.6	0.00073327
289.8	0.00077758
290	0.00082457
290.2	0.00087440
290.4	0.00092724
290.6	0.00098327
290.8	0.00104270
291	0.00100450
291.2	0.00095630
291.4	0.00091041
291.6	0.00086672
291.8	0.00082513
292	0.00078553
292.2	0.00074784
292.4	0.00071195
292.6	0.00067779
292.8	0.00064526
293	0.00061430
293.2	0.00058482
293.4	0.00055676
293.6	0.00053004
293.8	0.00050461
294	0.00050235
294.2	0.00051523
294.4	0.00052844
294.6	0.00054198
294.8	0.00055588
295	0.00057012
295.2	0.00055034
295.4	0.00053125
295.6	0.00051281
295.8	0.00049502
296	0.00047784
296.2	0.00046126
296.4	0.00044526
296.6	0.00042981
296.8	0.00041490
297	0.00040050
297.2	0.00038804
297.4	0.00039236
297.6	0.00039673
297.8	0.00040114
298	0.00040561
298.2	0.00041012
298.4	0.00041469
298.6	0.00041930
298.8	0.00042397
299	0.00042869
299.2	0.00043346
299.4	0.00043828
299.6	0.00044316
299.8	0.00044809
300	0.00045308
300.2	0.00045813
300.4	0.00044450
300.6	0.00042658
300.8	0.00040938
301	0.00039287
301.2	0.00037703
301.4	0.00036183
301.6	0.00034724
301.8	0.00033324
302	0.00031980
302.2	0.00030690
302.4	0.00029453
302.6	0.00028265
302.8	0.00027126
303	0.00026032
303.2	0.00024982
303.4	0.00025531
303.6	0.00027752
303.8	0.00030165
304	0.00032789
304.2	0.00035641
304.4	0.00038740
304.6	0.00042110
304.8	0.00045772
305	0.00049753
305.2	0.00073355
305.4	0.00073305
305.6	0.00073254
305.8	0.00073204
306	0.00073153
306.2	0.00073103
306.4	0.00073053
306.6	0.00073003
306.8	0.00072952
307	0.00072902
307.2	0.00072852
307.4	0.00072802
307.6	0.00072752
307.8	0.00072701
308	0.00072651
308.2	0.00072650
308.4	0.00073027
308.6	0.00073406
308.8	0.00073787
309	0.00074170
309.2	0.00074555
309.4	0.00074942
309.6	0.00075330
309.8	0.00075721
310	0.00076114
310.2	0.00076509
310.4	0.00076906
310.6	0.00077305
310.8	0.00077706
311	0.00078109
311.2	0.00078515
311.4	0.00078486
311.6	0.00078341
311.8	0.00078197
312	0.00078053
312.2	0.00077910
312.4	0.00077766
312.6	0.00077623
312.8	0.00077480
313	0.00077338
313.2	0.00077196
313.4	0.00077054
313.6	0.00076912
313.8	0.00076770
314	0.00076629
314.2	0.00076488
314.4	0.00077186
314.6	0.00078856
314.8	0.00080563
315	0.00082306
315.2	0.00084087
315.4	0.00085906
315.6	0.00087765
315.8	0.00089664
316	0.00091604
316.2	0.00093586
316.4	0.00095611
316.6	0.00097680
316.8	0.00099794
317	0.00101950
317.2	0.00104160
317.4	0.00106650
317.6	0.00110550
317.8	0.00114590
318	0.00118780
318.2	0.00123120
318.4	0.00127620
318.6	0.00132280
318.8	0.00137110
319	0.00142120
319.2	0.00147320
319.4	0.00152700
319.6	0.00158280
319.8	0.00164060
320	0.00170060
320.2	0.00176270
320.4	0.00182720
320.6	0.00190460
320.8	0.00198730
321	0.00207370
321.2	0.00216380
321.4	0.00225780
321.6	0.00235590
321.8	0.00245820
322	0.00256500
322.2	0.00267640
322.4	0.00279270
322.6	0.00291410
322.8	0.00304070
323	0.00317280
323.2	0.00331060
323.4	0.00345440
323.6	0.00349460
323.8	0.00344320
324	0.00339260
324.2	0.00334270
324.4	0.00329350
324.6	0.00324510
324.8	0.00319740
325	0.00315030
325.2	0.00310400
325.4	0.00305840
325.6	0.00301340
325.8	0.00296910
326	0.00292540
326.2	0.00288240
326.4	0.00284000
326.6	0.00275510
326.8	0.00254470
327	0.00235030
327.2	0.00217070
327.4	0.00200490
327.6	0.00185180
327.8	0.00171030
328	0.00157960
328.2	0.00145900
328.4	0.00134750
328.6	0.00124460
328.8	0.00114950
329	0.00106170
329.2	0.00098059
329.4	0.00090569
329.6	0.00083650
329.8	0.00079031
330	0.00074757
330.2	0.00070713
330.4	0.00066889
330.6	0.00063271
330.8	0.00059849
331	0.00056612
331.2	0.00053550
331.4	0.00050654
331.6	0.00047914
331.8	0.00045323
332	0.00042871
332.2	0.00040553
332.4	0.00038359
332.6	0.00036285
332.8	0.00035395
333	0.00035079
333.2	0.00034766
333.4	0.00034456
333.6	0.00034148
333.8	0.00033844
334	0.00033542
334.2	0.00033242
334.4	0.00032946
334.6	0.00032652
334.8	0.00032360
335	0.00032072
335.2	0.00031785
335.4	0.00031502
335.6	0.00031221
335.8	0.00031058
336	0.00031085
336.2	0.00031111
336.4	0.00031138
336.6	0.00031165
336.8	0.00031192
337	0.00031219
337.2	0.00031246
337.4	0.00031273
337.6	0.00031300
337.8	0.00031327
338	0.00031354
338.2	0.00031381
338.4	0.00031408
338.6	0.00031435
338.8	0.00031371
339	0.00030497
339.2	0.00029647
339.4	0.00028821
339.6	0.00028018
339.8	0.00027238
340	0.00026479
340.2	0.00025741
340.4	0.00025024
340.6	0.00024327
340.8	0.00023649
341	0.00022990
341.2	0.00022350
341.4	0.00021727
341.6	0.00021122
341.8	0.00020533
342	0.00020351
342.2	0.00020250
342.4	0.00020150
342.6	0.00020050
342.8	0.00019950
343	0.00019852
343.2	0.00019753
343.4	0.00019655
343.6	0.00019558
343.8	0.00019461
344	0.00019364
344.2	0.00019269
344.4	0.00019173
344.6	0.00019078
344.8	0.00018983
345	0.00018887
345.2	0.00018789
345.4	0.00018692
345.6	0.00018596
345.8	0.00018500
346	0.00018404
346.2	0.00018309
346.4	0.00018214
346.6	0.00018120
346.8	0.00018026
347	0.00017933
347.2	0.00017840
347.4	0.00017748
347.6	0.00017656
347.8	0.00017565
348	0.00017551
348.2	0.00017716
348.4	0.00017882
348.6	0.00018050
348.8	0.00018220
349	0.00018391
349.2	0.00018564
349.4	0.00018738
349.6	0.00018915
349.8	0.00019092
350	0.00019272
350.2	0.00019453
350.4	0.00019636
350.6	0.00019820
350.8	0.00020006
351	0.00020185
351.2	0.00020159
351.4	0.00020134
351.6	0.00020109
351.8	0.00020083
352	0.00020058
352.2	0.00020033
352.4	0.00020007
352.6	0.00019982
352.8	0.00019957
353	0.00019932
353.2	0.00019907
353.4	0.00019882
353.6	0.00019857
353.8	0.00019832
354	0.00019807
354.2	0.00019671
354.4	0.00019506
354.6	0.00019343
354.8	0.00019181
355	0.00019020
355.2	0.00018861
355.4	0.00018703
355.6	0.00018547
355.8	0.00018392
356	0.00018238
356.2	0.00018085
356.4	0.00017934
356.6	0.00017784
356.8	0.00017635
357	0.00017487
357.2	0.00017493
357.4	0.00017625
357.6	0.00017759
357.8	0.00017894
358	0.00018030
358.2	0.00018168
358.4	0.00018306
358.6	0.00018445
358.8	0.00018585
359	0.00018726
359.2	0.00018869
359.4	0.00019012
359.6	0.00019157
359.8	0.00019302
360	0.00019449
360.2	0.00019547
360.4	0.00019533
360.6	0.00019519
360.8	0.00019505
361	0.00019491
361.2	0.00019477
361.4	0.00019463
361.6	0.00019449
361.8	0.00019436
362	0.00019422
362.2	0.00019408
362.4	0.00019394
362.6	0.00019380
362.8	0.00019366
363	0.00019352
363.2	0.00018792
363.4	0.00012470
363.6	0.00008275
363.8	0.00005491
364	0.00003644
364.2	0.00002418
364.4	0.00001605
364.6	0.00001065
364.8	0.00000707
365	0.00000469
365.2	0.00000912
365.4	0.00000915
365.6	0.00000866
365.8	0.00000926
366	0.00000975
366.2	0.00000969
366.4	0.00000897
366.6	0.00000973
366.8	0.00000862
367	0.00000921
367.2	0.00000919
367.4	0.00000913
367.6	0.00000940
367.8	0.00000913
368	0.00000929
368.2	0.00000970
368.4	0.00000924
368.6	0.00000939
368.8	0.00000954
369	0.00000947
369.2	0.00000879
369.4	0.00000857
369.6	0.00000881
369.8	0.00000975
370	0.00000969
370.2	0.00000937
370.4	0.00000916
370.6	0.00000943
370.8	0.00000955
371	0.00000903
371.2	0.00000921
371.4	0.00000871
371.6	0.00000889
371.8	0.00000943
372	0.00000927
372.2	0.00000903
372.4	0.00000897
372.6	0.00000989
372.8	0.00000938
373	0.00000887
373.2	0.00000861
373.4	0.00000962
373.6	0.00000883
373.8	0.00000889
374	0.00000846
374.2	0.00000872
374.4	0.00000896
374.6	0.00000876
374.8	0.00000860
375	0.00000898
375.2	0.00000854
375.4	0.00000914
375.6	0.00000932
375.8	0.00000903
376	0.00000923
376.2	0.00000904
376.4	0.00000922
376.6	0.00000898
376.8	0.00000956
377	0.00000936
377.2	0.00000914
377.4	0.00000928
377.6	0.00000900
377.8	0.00001007
378	0.00000961
378.2	0.00000969
378.4	0.00000943
378.6	0.00000886
378.8	0.00000969
379	0.00001016
379.2	0.00001021
379.4	0.00000979
379.6	0.00000995
379.8	0.00001000
380	0.00000997
380.2	0.00000963
380.4	0.00000996
380.6	0.00000977
380.8	0.00000991
381	0.00000974
381.2	0.00000949
381.4	0.00000980
381.6	0.00000962
381.8	0.00000968
382	0.00000985
382.2	0.00000945
382.4	0.00000934
382.6	0.00000990
382.8	0.00000945
383	0.00001007
383.2	0.00000923
383.4	0.00000991
383.6	0.00000981
383.8	0.00000975
384	0.00001033
384.2	0.00001003
384.4	0.00000972
384.6	0.00001006
384.8	0.00000976
385	0.00001018
385.2	0.00000981
385.4	0.00000980
385.6	0.00001008
385.8	0.00000980
386	0.00000982
386.2	0.00000974
386.4	0.00000987
386.6	0.00001016
386.8	0.00000962
387	0.00001068
387.2	0.00001044
387.4	0.00000962
387.6	0.00000982
387.8	0.00000938
388	0.00001019
388.2	0.00000994
388.4	0.00000975
388.6	0.00001085
388.8	0.00001025
389	0.00001059
389.2	0.00001039
389.4	0.00001036
389.6	0.00001047
389.8	0.00001122
390	0.00001109
390.2	0.00001053
390.4	0.00001063
390.6	0.00001140
390.8	0.00001109
391	0.00001184
391.2	0.00001197
391.4	0.00001133
391.6	0.00001139
391.8	0.00001151
392	0.00001135
392.2	0.00001143
392.4	0.00001194
392.6	0.00001178
392.8	0.00001201
393	0.00001197
393.2	0.00001194
393.4	0.00001156
393.6	0.00001249
393.8	0.00001274
394	0.00001247
394.2	0.00001273
394.4	0.00001194
394.6	0.00001227
394.8	0.00001159
395	0.00001255
395.2	0.00001254
395.4	0.00001215
395.6	0.00001198
395.8	0.00001234
396	0.00001260
396.2	0.00001202
396.4	0.00001240
396.6	0.00001246
396.8	0.00001181
397	0.00001201
397.2	0.00001245
397.4	0.00001184
397.6	0.00001235
397.8	0.00001171
398	0.00001223
398.2	0.00001192
398.4	0.00001178
398.6	0.00001181
398.8	0.00001146
399	0.00001223
399.2	0.00001148
399.4	0.00001159
399.6	0.00001178
399.8	0.00001152
400	0.00070569
400.2	0.00040336
400.4	0.00059394
400.6	0.00059987
400.8	0.00060502
401	0.00050164
401.2	0.00064043
401.4	0.00054951
401.6	0.00054664
401.8	0.00062267
402	0.00068351
402.2	0.00066543
402.4	0.00048190
402.6	0.00050194
402.8	0.00060428
403	0.00059471
403.2	0.00038926
403.4	0.00054601
403.6	0.00033054
403.8	0.00046209
404	0.00065099
404.2	0.00065668
404.4	0.00060509
404.6	0.00054252
404.8	0.00029991
405	0.00079597
405.2	0.00057331
405.4	0.00026974
405.6	0.00051943
405.8	0.00034791
406	0.00045736
406.2	0.00067561
406.4	0.00048345
406.6	0.00051836
406.8	0.00019736
407	0.00054718
407.2	0.00054485
407.4	0.00046710
407.6	0.00063481
407.8	0.00034390
408	0.00028773
408.2	0.00074633
408.4	0.00063715
408.6	0.00059546
408.8	0.00049384
409	0.00043231
409.2	0.00061425
409.4	0.00044794
409.6	0.00048611
409.8	0.00059201
410	0.00043601
410.2	0.00061571
410.4	0.00054773
410.6	0.00031664
410.8	0.00047680
411	0.00053504
411.2	0.00055712
411.4	0.00043846
411.6	0.00071098
411.8	0.00057103
412	0.00066847
412.2	0.00041228
412.4	0.00040719
412.6	0.00043580
412.8	0.00051001
413	0.00032902
413.2	0.00056120
413.4	0.00056567
413.6	0.00064220
413.8	0.00052085
414	0.00071043
414.2	0.00044055
414.4	0.00049317
414.6	0.00082998
414.8	0.00054309
415	0.00040536
415.2	0.00050616
415.4	0.00060415
415.6	0.00048397
415.8	0.00063216
416	0.00056952
416.2	0.00045286
416.4	0.00051659
416.6	0.00071930
416.8	0.00063877
417	0.00044319
417.2	0.00064311
417.4	0.00058044
417.6	0.00075154
417.8	0.00040245
418	0.00027862
418.2	0.00067731
418.4	0.00045618
418.6	0.00061477
418.8	0.00054202
419	0.00043610
419.2	0.00047131
419.4	0.00054254
419.6	0.00064226
419.8	0.00043800
420	0.00057758
420.2	0.00038891
420.4	0.00048378
420.6	0.00044511
420.8	0.00073385
421	0.00064436
421.2	0.00061795
421.4	0.00045608
421.6	0.00053319
421.8	0.00051881
422	0.00049580
422.2	0.00076868
422.4	0.00062435
422.6	0.00081025
422.8	0.00047365
423	0.00047358
423.2	0.00083765
423.4	0.00063116
423.6	0.00046705
423.8	0.00056447
424	0.00065715
424.2	0.00054570
424.4	0.00060403
424.6	0.00057318
424.8	0.00059887
425	0.00056950
425.2	0.00085260
425.4	0.00071266
425.6	0.00050869
425.8	0.00070051
426	0.00047632
426.2	0.00050504
426.4	0.00061389
426.6	0.00069827
426.8	0.00065015
427	0.00060865
427.2	0.00067499
427.4	0.00054995
427.6	0.00055187
427.8	0.00045949
428	0.00093600
428.2	0.00069640
428.4	0.00068653
428.6	0.00060322
428.8	0.00067935
429	0.00070943
429.2	0.00061043
429.4	0.00076982
429.6	0.00053489
429.8	0.00069777
430	0.00068848
430.2	0.00070179
430.4	0.00060806
430.6	0.00037186
430.8	0.00091089
431	0.00064947
431.2	0.00056532
431.4	0.00070090
431.6	0.00053978
431.8	0.00085977
432	0.00089895
432.2	0.00073664
432.4	0.00064390
432.6	0.00059189
432.8	0.00080591
433	0.00076657
433.2	0.00077115
433.4	0.00065556
433.6	0.00106950
433.8	0.00059330
434	0.00079933
434.2	0.00067239
434.4	0.00079535
434.6	0.00071209
434.8	0.00088174
435	0.00000975
435.2	0.00002665
435.4	0.00000765
435.6	0.00000794
435.8	0.00001235
436	0.00001355
436.2	0.00000567
436.4	0.00000963
436.6	0.00001488
436.8	0.00000769
437	0.00000528
437.2	0.00000686
437.4	0.00001530
437.6	0.00000640
437.8	0.00000815
438	0.00000636
438.2	0.00000756
438.4	0.00001042
438.6	0.00001039
438.8	0.00001037
439	0.00001959
439.2	0.00001947
439.4	0.00001260
439.6	0.00000776
439.8	0.00000733
440	0.00003012
440.2	0.00000761
440.4	0.00000758
440.6	0.00001597
440.8	0.00002949
441	0.00002206
441.2	0.00001126
441.4	0.00003024
441.6	0.00002012
441.8	0.00001256
442	0.00001059
442.2	0.00001502
442.4	0.00002174
442.6	0.00000529
442.8	0.00001690
443	0.00001502
443.2	0.00001139
443.4	0.00001283
443.6	0.00000565
443.8	0.00000563
444	0.00002600
444.2	0.00000982
444.4	0.00000790
444.6	0.00001565
444.8	0.00001927
445	0.00001021
445.2	0.00000506
445.4	0.00001100
445.6	0.00000808
445.8	0.00000483
446	0.00000521
446.2	0.00000898
446.4	0.00000754
446.6	0.00001880
446.8	0.00001731
447	0.00001205
447.2	0.00000821
447.4	0.00000473
447.6	0.00001684
447.8	0.00001138
448	0.00001620
448.2	0.00001801
448.4	0.00001530
448.6	0.00001745
448.8	0.00001005
449	0.00001720
449.2	0.00002274
449.4	0.00001774
449.6	0.00001538
449.8	0.00002010
450	0.00003114
450.2	0.00002489
450.4	0.00002273
450.6	0.00002277
450.8	0.00002427
451	0.00002823
451.2	0.00002938
451.4	0.00001087
451.6	0.00001981
451.8	0.00002454
452	0.00001956
452.2	0.00002918
452.4	0.00005025
452.6	0.00006062
452.8	0.00006473
453	0.00008485
453.2	0.00011727
453.4	0.00014480
453.6	0.00021105
453.8	0.00027805
454	0.00043334
454.2	0.00066165
454.4	0.00109700
454.6	0.00194890
454.8	0.00327340
455	0.00804690
455.2	0.01760500
455.4	0.02990700
455.6	0.05379000
455.8	0.10600000
456	0.22600000
456.2	0.51200000
456.4	1.23000000
456.6	2.93600000
456.8	7.65700000
457	20.09400000
457.2	44.77500000
457.4	72.55500000
457.6	87.08400000
457.8	91.27700000
458	92.80900000
458.2	93.25700000
458.4	93.58000000
458.6	93.83000000
458.8	94.05900000
459	94.15400000
459.2	94.27700000
459.4	94.30300000
459.6	94.31800000
459.8	94.20900000
460	94.16600000
460.2	94.12500000
460.4	94.25500000
460.6	94.25500000
460.8	94.44900000
461	94.46400000
461.2	94.46800000
461.4	94.44900000
461.6	94.42800000
461.8	94.24600000
462	94.18000000
462.2	94.12000000
462.4	94.14100000
462.6	94.22000000
462.8	94.32400000
463	94.48200000
463.2	94.61400000
463.4	94.67900000
463.6	94.85000000
463.8	94.89400000
464	94.96100000
464.2	94.81500000
464.4	94.83900000
464.6	94.81600000
464.8	94.77800000
465	94.62600000
465.2	94.51100000
465.4	94.47200000
465.6	94.43400000
465.8	94.39000000
466	94.34200000
466.2	94.34300000
466.4	94.33000000
466.6	94.41400000
466.8	94.44900000
467	94.50700000
467.2	94.64800000
467.4	94.66800000
467.6	94.79700000
467.8	94.95500000
468	94.98900000
468.2	95.05500000
468.4	95.03300000
468.6	95.06900000
468.8	95.05200000
469	95.06300000
469.2	94.98600000
469.4	95.03600000
469.6	95.03700000
469.8	94.97500000
470	95.04900000
470.2	95.10900000
470.4	95.02000000
470.6	95.07200000
470.8	95.13900000
471	95.13700000
471.2	95.16100000
471.4	95.18800000
471.6	95.22600000
471.8	95.17900000
472	95.14300000
472.2	95.08600000
472.4	95.08100000
472.6	95.05500000
472.8	95.16600000
473	95.12500000
473.2	95.17100000
473.4	95.19300000
473.6	95.27600000
473.8	95.27300000
474	95.26900000
474.2	95.21800000
474.4	95.24200000
474.6	95.17200000
474.8	95.19400000
475	95.07200000
475.2	94.93600000
475.4	94.87100000
475.6	94.81200000
475.8	94.81500000
476	94.73100000
476.2	94.79700000
476.4	94.74000000
476.6	94.65000000
476.8	94.65500000
477	94.64100000
477.2	94.54100000
477.4	94.56600000
477.6	94.50700000
477.8	94.46000000
478	94.34400000
478.2	94.29900000
478.4	94.21400000
478.6	94.23100000
478.8	94.24800000
479	94.23000000
479.2	94.31800000
479.4	94.45000000
479.6	94.45800000
479.8	94.71200000
480	94.75600000
480.2	94.94300000
480.4	94.95500000
480.6	95.05200000
480.8	94.95400000
481	95.00500000
481.2	94.84100000
481.4	94.72400000
481.6	94.58600000
481.8	94.36100000
482	94.29500000
482.2	94.13800000
482.4	94.06300000
482.6	94.02600000
482.8	94.10900000
483	94.10600000
483.2	94.21300000
483.4	94.48800000
483.6	94.64000000
483.8	94.78400000
484	94.92100000
484.2	95.00700000
484.4	95.18200000
484.6	95.15400000
484.8	95.18200000
485	95.04500000
485.2	94.95100000
485.4	94.95100000
485.6	94.83800000
485.8	94.75500000
486	94.74300000
486.2	94.71000000
486.4	94.74000000
486.6	94.76300000
486.8	94.81200000
487	94.90400000
487.2	95.00900000
487.4	95.11600000
487.6	95.03600000
487.8	95.07400000
488	95.09200000
488.2	94.89600000
488.4	94.76500000
488.6	94.68600000
488.8	94.48300000
489	94.39900000
489.2	94.29400000
489.4	94.31200000
489.6	94.26800000
489.8	94.36400000
490	94.45500000
490.2	94.54500000
490.4	94.71200000
490.6	94.86500000
490.8	94.97100000
491	95.10700000
491.2	95.05600000
491.4	95.00200000
491.6	94.86700000
491.8	94.65700000
492	94.44800000
492.2	94.16300000
492.4	93.93200000
492.6	93.77000000
492.8	93.62000000
493	93.56100000
493.2	93.58000000
493.4	93.66000000
493.6	93.82000000
493.8	93.95100000
494	94.03400000
494.2	94.15000000
494.4	94.24000000
494.6	94.21000000
494.8	94.13600000
495	93.92000000
495.2	93.78600000
495.4	93.58900000
495.6	93.43600000
495.8	93.36300000
496	93.27800000
496.2	93.35800000
496.4	93.37900000
496.6	93.47800000
496.8	93.65200000
497	93.75000000
497.2	93.80800000
497.4	93.87900000
497.6	93.86100000
497.8	93.76200000
498	93.64900000
498.2	93.49900000
498.4	93.35400000
498.6	93.16500000
498.8	92.95200000
499	92.70500000
499.2	92.48500000
499.4	92.32800000
499.6	92.48000000
499.8	93.01500000
500	93.79500000
500.2	93.74000000
500.4	90.01300000
500.6	76.04200000
500.8	55.69900000
501	35.18300000
501.2	20.09700000
501.4	11.14500000
501.6	6.27500000
501.8	3.65100000
502	1.99700000
502.2	1.17400000
502.4	0.71900000
502.6	0.45600000
502.8	0.29200000
503	0.19500000
503.2	0.13100000
503.4	0.08861700
503.6	0.05839600
503.8	0.04112200
504	0.02951200
504.2	0.02130300
504.4	0.01566800
504.6	0.01161400
504.8	0.00866250
505	0.00643750
505.2	0.00493480
505.4	0.00380600
505.6	0.00296160
505.8	0.00234110
506	0.00188140
506.2	0.00145990
506.4	0.00114800
506.6	0.00092243
506.8	0.00075415
507	0.00062583
507.2	0.00052422
507.4	0.00044813
507.6	0.00036782
507.8	0.00030134
508	0.00026269
508.2	0.00022223
508.4	0.00018152
508.6	0.00017590
508.8	0.00014995
509	0.00013664
509.2	0.00011830
509.4	0.00010730
509.6	0.00010371
509.8	0.00009792
510	0.00008638
510.2	0.00007477
510.4	0.00006787
510.6	0.00006792
510.8	0.00006975
511	0.00006572
511.2	0.00005209
511.4	0.00006008
511.6	0.00005084
511.8	0.00004315
512	0.00004688
512.2	0.00004745
512.4	0.00003959
512.6	0.00003819
512.8	0.00003801
513	0.00003628
513.2	0.00003309
513.4	0.00003447
513.6	0.00003818
513.8	0.00003339
514	0.00003458
514.2	0.00003138
514.4	0.00002690
514.6	0.00002748
514.8	0.00003561
515	0.00003833
515.2	0.00003996
515.4	0.00003629
515.6	0.00004050
515.8	0.00004932
516	0.00005936
516.2	0.00006691
516.4	0.00007987
516.6	0.00009220
516.8	0.00010307
517	0.00013636
517.2	0.00015985
517.4	0.00017340
517.6	0.00020524
517.8	0.00020078
518	0.00018631
518.2	0.00015043
518.4	0.00011661
518.6	0.00008773
518.8	0.00006651
519	0.00005404
519.2	0.00004226
519.4	0.00003358
519.6	0.00003008
519.8	0.00002915
520	0.00002699
520.2	0.00002341
520.4	0.00002201
520.6	0.00001791
520.8	0.00001784
521	0.00002075
521.2	0.00001297
521.4	0.00000931
521.6	0.00001212
521.8	0.00001229
522	0.00001846
522.2	0.00001516
522.4	0.00001082
522.6	0.00001232
522.8	0.00001516
523	0.00001050
523.2	0.00001006
523.4	0.00000793
523.6	0.00000993
523.8	0.00001118
524	0.00001107
524.2	0.00000651
524.4	0.00000135
524.6	0.00001128
524.8	0.00001286
525	0.00001179
525.2	0.00000709
525.4	0.00000762
525.6	0.00001292
525.8	0.00000900
526	0.00001087
526.2	0.00000893
526.4	0.00001075
526.6	0.00001271
526.8	0.00001174
527	0.00000896
527.2	0.00000993
527.4	0.00001792
527.6	0.00001983
527.8	0.00002592
528	0.00002774
528.2	0.00002752
528.4	0.00002841
528.6	0.00002935
528.8	0.00003647
529	0.00004755
529.2	0.00005717
529.4	0.00006731
529.6	0.00007894
529.8	0.00009426
530	0.00012577
530.2	0.00016245
530.4	0.00020409
530.6	0.00024081
530.8	0.00027124
531	0.00029494
531.2	0.00031378
531.4	0.00031403
531.6	0.00028644
531.8	0.00026803
532	0.00024662
532.2	0.00022271
532.4	0.00020053
532.6	0.00018325
532.8	0.00016971
533	0.00015846
533.2	0.00014606
533.4	0.00014223
533.6	0.00014060
533.8	0.00013516
534	0.00012136
534.2	0.00012216
534.4	0.00011512
534.6	0.00010015
534.8	0.00009669
535	0.00009869
535.2	0.00009777
535.4	0.00008758
535.6	0.00008151
535.8	0.00007805
536	0.00007353
536.2	0.00007067
536.4	0.00006990
536.6	0.00006936
536.8	0.00006645
537	0.00005957
537.2	0.00005666
537.4	0.00005263
537.6	0.00005266
537.8	0.00005440
538	0.00004949
538.2	0.00005200
538.4	0.00005456
538.6	0.00005586
538.8	0.00005913
539	0.00006026
539.2	0.00005745
539.4	0.00005651
539.6	0.00005464
539.8	0.00006128
540	0.00006875
540.2	0.00007064
540.4	0.00007304
540.6	0.00007790
540.8	0.00007534
541	0.00009103
541.2	0.00010400
541.4	0.00011362
541.6	0.00012710
541.8	0.00014190
542	0.00014703
542.2	0.00016603
542.4	0.00016155
542.6	0.00016978
542.8	0.00018074
543	0.00018205
543.2	0.00017889
543.4	0.00017328
543.6	0.00016855
543.8	0.00015648
544	0.00015503
544.2	0.00015414
544.4	0.00014235
544.6	0.00013695
544.8	0.00013954
545	0.00014460
545.2	0.00013611
545.4	0.00013187
545.6	0.00013324
545.8	0.00013593
546	0.00013676
546.2	0.00013285
546.4	0.00014543
546.6	0.00014447
546.8	0.00014546
547	0.00014994
547.2	0.00014884
547.4	0.00015069
547.6	0.00014806
547.8	0.00013605
548	0.00012399
548.2	0.00011197
548.4	0.00010105
548.6	0.00009349
548.8	0.00008370
549	0.00006950
549.2	0.00006215
549.4	0.00005884
549.6	0.00005748
549.8	0.00005468
550	0.00004330
550.2	0.00003667
550.4	0.00002912
550.6	0.00002970
550.8	0.00002714
551	0.00002500
551.2	0.00002668
551.4	0.00002142
551.6	0.00002584
551.8	0.00001990
552	0.00001295
552.2	0.00001181
552.4	0.00001458
552.6	0.00001782
552.8	0.00001617
553	0.00001048
553.2	0.00000962
553.4	0.00001278
553.6	0.00001385
553.8	0.00001231
554	0.00001658
554.2	0.00000786
554.4	0.00000628
554.6	0.00001306
554.8	0.00001202
555	0.00001181
555.2	0.00001820
555.4	0.00001654
555.6	0.00001366
555.8	0.00001146
556	0.00001333
556.2	0.00001076
556.4	0.00000945
556.6	0.00001305
556.8	0.00001143
557	0.00001498
557.2	0.00001535
557.4	0.00001807
557.6	0.00001886
557.8	0.00002091
558	0.00002901
558.2	0.00003309
558.4	0.00002987
558.6	0.00003224
558.8	0.00003256
559	0.00003615
559.2	0.00004204
559.4	0.00004344
559.6	0.00005371
559.8	0.00005823
560	0.00006767
560.2	0.00007179
560.4	0.00007190
560.6	0.00007202
560.8	0.00007213
561	0.00007225
561.2	0.00007236
561.4	0.00007247
561.6	0.00007259
561.8	0.00007270
562	0.00007282
562.2	0.00007293
562.4	0.00007305
562.6	0.00007038
562.8	0.00006597
563	0.00006184
563.2	0.00005797
563.4	0.00005434
563.6	0.00005093
563.8	0.00004774
564	0.00004475
564.2	0.00004195
564.4	0.00003932
564.6	0.00003686
564.8	0.00003455
565	0.00003275
565.2	0.00003150
565.4	0.00003030
565.6	0.00002914
565.8	0.00002803
566	0.00002696
566.2	0.00002593
566.4	0.00002494
566.6	0.00002399
566.8	0.00002307
567	0.00002219
567.2	0.00002134
567.4	0.00002061
567.6	0.00002010
567.8	0.00001961
568	0.00001912
568.2	0.00001865
568.4	0.00001819
568.6	0.00001774
568.8	0.00001731
569	0.00001688
569.2	0.00001646
569.4	0.00001606
569.6	0.00001566
569.8	0.00001528
570	0.00001523
570.2	0.00001560
570.4	0.00001598
570.6	0.00001636
570.8	0.00001676
571	0.00001717
571.2	0.00001758
571.4	0.00001801
571.6	0.00001845
571.8	0.00001890
572	0.00001935
572.2	0.00001982
572.4	0.00002030
572.6	0.00002063
572.8	0.00002084
573	0.00002106
573.2	0.00002127
573.4	0.00002149
573.6	0.00002171
573.8	0.00002194
574	0.00002216
574.2	0.00002239
574.4	0.00002262
574.6	0.00002286
574.8	0.00002309
575	0.00002338
575.2	0.00002373
575.4	0.00002409
575.6	0.00002445
575.8	0.00002482
576	0.00002520
576.2	0.00002558
576.4	0.00002596
576.6	0.00002636
576.8	0.00002675
577	0.00002716
577.2	0.00002757
577.4	0.00002849
577.6	0.00003064
577.8	0.00003294
578	0.00003543
578.2	0.00003810
578.4	0.00004097
578.6	0.00004406
578.8	0.00004738
579	0.00005095
579.2	0.00005479
579.4	0.00005892
579.6	0.00006336
579.8	0.00006813
580	0.00007300
580.2	0.00007788
580.4	0.00008307
580.6	0.00008862
580.8	0.00009453
581	0.00010084
581.2	0.00010757
581.4	0.00011476
581.6	0.00012242
581.8	0.00013059
582	0.00013930
582.2	0.00014860
582.4	0.00015852
582.6	0.00015471
582.8	0.00014211
583	0.00013054
583.2	0.00011991
583.4	0.00011014
583.6	0.00010118
583.8	0.00009294
584	0.00008537
584.2	0.00007842
584.4	0.00007203
584.6	0.00006617
584.8	0.00006078
585	0.00005668
585.2	0.00005381
585.4	0.00005108
585.6	0.00004849
585.8	0.00004603
586	0.00004370
586.2	0.00004148
586.4	0.00003938
586.6	0.00003738
586.8	0.00003549
587	0.00003369
587.2	0.00003198
587.4	0.00003102
587.6	0.00003138
587.8	0.00003176
588	0.00003213
588.2	0.00003251
588.4	0.00003290
588.6	0.00003329
588.8	0.00003369
589	0.00003409
589.2	0.00003449
589.4	0.00003490
589.6	0.00003531
589.8	0.00003573
590	0.00003771
590.2	0.00004089
590.4	0.00004435
590.6	0.00004810
590.8	0.00005216
591	0.00005657
591.2	0.00006134
591.4	0.00006637
591.6	0.00007182
591.8	0.00007771
592	0.00008408
592.2	0.00009098
592.4	0.00009844
592.6	0.00010651
592.8	0.00011525
593	0.00012471
593.2	0.00013493
593.4	0.00014600
593.6	0.00014661
593.8	0.00012891
594	0.00011335
594.2	0.00009967
594.4	0.00008764
594.6	0.00007706
594.8	0.00006776
595	0.00005958
595.2	0.00005239
595.4	0.00004606
595.6	0.00004050
595.8	0.00003561
596	0.00003162
596.2	0.00002822
596.4	0.00002519
596.6	0.00002248
596.8	0.00002006
597	0.00001791
597.2	0.00001598
597.4	0.00001426
597.6	0.00001273
597.8	0.00001136
598	0.00001014
598.2	0.00000905
598.4	0.00000905
598.6	0.00000909
598.8	0.00000914
599	0.00000918
599.2	0.00000923
599.4	0.00000928
599.6	0.00000932
599.8	0.00000937
600	0.00000942
600.2	0.00000911
600.4	0.00000874
600.6	0.00000839
600.8	0.00000805
601	0.00000772
601.2	0.00000741
601.4	0.00000711
601.6	0.00000682
601.8	0.00000654
602	0.00000628
602.2	0.00000602
602.4	0.00000578
602.6	0.00000595
602.8	0.00000649
603	0.00000709
603.2	0.00000773
603.4	0.00000843
603.6	0.00000920
603.8	0.00001004
604	0.00001095
604.2	0.00001195
604.4	0.00001304
604.6	0.00001422
604.8	0.00001552
605	0.00001749
605.2	0.00002059
605.4	0.00002423
605.6	0.00002852
605.8	0.00003357
606	0.00003952
606.2	0.00004652
606.4	0.00005475
606.6	0.00006444
606.8	0.00007585
607	0.00008928
607.2	0.00010509
607.4	0.00011451
607.6	0.00010590
607.8	0.00009795
608	0.00009059
608.2	0.00008378
608.4	0.00007749
608.6	0.00007167
608.8	0.00006628
609	0.00006130
609.2	0.00005670
609.4	0.00005244
609.6	0.00004850
609.8	0.00004485
610	0.00004107
610.2	0.00003712
610.4	0.00003356
610.6	0.00003033
610.8	0.00002742
611	0.00002478
611.2	0.00002240
611.4	0.00002025
611.6	0.00001830
611.8	0.00001654
612	0.00001495
612.2	0.00001352
612.4	0.00001222
612.6	0.00001115
612.8	0.00001026
613	0.00000944
613.2	0.00000869
613.4	0.00000799
613.6	0.00000735
613.8	0.00000676
614	0.00000622
614.2	0.00000573
614.4	0.00000527
614.6	0.00000485
614.8	0.00000446
615	0.00000430
615.2	0.00000440
615.4	0.00000451
615.6	0.00000462
615.8	0.00000473
616	0.00000484
616.2	0.00000496
616.4	0.00000508
616.6	0.00000520
616.8	0.00000532
617	0.00000545
617.2	0.00000558
617.4	0.00000575
617.6	0.00000600
617.8	0.00000625
618	0.00000652
618.2	0.00000680
618.4	0.00000710
618.6	0.00000740
618.8	0.00000772
619	0.00000805
619.2	0.00000840
619.4	0.00000876
619.6	0.00000914
619.8	0.00000953
620	0.00001049
620.2	0.00001234
620.4	0.00001452
620.6	0.00001708
620.8	0.00002009
621	0.00002363
621.2	0.00002780
621.4	0.00003270
621.6	0.00003847
621.8	0.00004525
622	0.00005323
622.2	0.00006262
622.4	0.00007366
622.6	0.00006638
622.8	0.00004852
623	0.00003546
623.2	0.00002592
623.4	0.00001894
623.6	0.00001385
623.8	0.00001012
624	0.00000740
624.2	0.00000541
624.4	0.00000395
624.6	0.00000289
624.8	0.00000211
625	0.00000167
625.2	0.00000146
625.4	0.00000128
625.6	0.00000112
625.8	0.00000098
626	0.00000086
626.2	0.00000075
626.4	0.00000066
626.6	0.00000057
626.8	0.00000050
627	0.00000044
627.2	0.00000038
627.4	0.00000037
627.6	0.00000045
627.8	0.00000053
628	0.00000063
628.2	0.00000075
628.4	0.00000089
628.6	0.00000107
628.8	0.00000127
629	0.00000151
629.2	0.00000180
629.4	0.00000214
629.6	0.00000255
629.8	0.00000303
630	0.00000309
630.2	0.00000259
630.4	0.00000218
630.6	0.00000183
630.8	0.00000154
631	0.00000129
631.2	0.00000108
631.4	0.00000091
631.6	0.00000076
631.8	0.00000064
632	0.00000054
632.2	0.00000045
632.4	0.00000038
632.6	0.00000035
632.8	0.00000035
633	0.00000035
633.2	0.00000035
633.4	0.00000035
633.6	0.00000035
633.8	0.00000035
634	0.00000035
634.2	0.00000035
634.4	0.00000035
634.6	0.00000035
634.8	0.00000035
635	0.00000037
635.2	0.00000041
635.4	0.00000046
635.6	0.00000052
635.8	0.00000058
636	0.00000065
636.2	0.00000073
636.4	0.00000082
636.6	0.00000092
636.8	0.00000104
637	0.00000116
637.2	0.00000130
637.4	0.00000144
637.6	0.00000156
637.8	0.00000169
638	0.00000183
638.2	0.00000198
638.4	0.00000214
638.6	0.00000231
638.8	0.00000250
639	0.00000271
639.2	0.00000293
639.4	0.00000317
639.6	0.00000343
639.8	0.00000371
640	0.00000379
640.2	0.00000361
640.4	0.00000344
640.6	0.00000328
640.8	0.00000312
641	0.00000298
641.2	0.00000284
641.4	0.00000270
641.6	0.00000258
641.8	0.00000245
642	0.00000234
642.2	0.00000223
642.4	0.00000212
642.6	0.00000224
642.8	0.00000258
643	0.00000297
643.2	0.00000342
643.4	0.00000393
643.6	0.00000453
643.8	0.00000521
644	0.00000600
644.2	0.00000690
644.4	0.00000795
644.6	0.00000915
644.8	0.00001053
645	0.00001208
645.2	0.00001379
645.4	0.00001575
645.6	0.00001798
645.8	0.00002053
646	0.00002344
646.2	0.00002677
646.4	0.00003057
646.6	0.00003490
646.8	0.00003986
647	0.00004551
647.2	0.00005197
647.4	0.00005727
647.6	0.00005939
647.8	0.00006160
648	0.00006389
648.2	0.00006627
648.4	0.00006873
648.6	0.00007128
648.8	0.00007393
649	0.00007668
649.2	0.00007953
649.4	0.00008249
649.6	0.00008555
649.8	0.00008873
650	0.00009258
650.2	0.00009730
650.4	0.00010226
650.6	0.00010747
650.8	0.00011295
651	0.00011870
651.2	0.00012475
651.4	0.00013111
651.6	0.00013779
651.8	0.00014482
652	0.00015220
652.2	0.00015995
652.4	0.00016810
652.6	0.00016631
652.8	0.00015612
653	0.00014656
653.2	0.00013758
653.4	0.00012915
653.6	0.00012124
653.8	0.00011381
654	0.00010684
654.2	0.00010029
654.4	0.00009415
654.6	0.00008838
654.8	0.00008297
655	0.00007686
655.2	0.00007007
655.4	0.00006389
655.6	0.00005825
655.8	0.00005311
656	0.00004842
656.2	0.00004415
656.4	0.00004025
656.6	0.00003670
656.8	0.00003346
657	0.00003051
657.2	0.00002782
657.4	0.00002637
657.6	0.00002664
657.8	0.00002692
658	0.00002719
658.2	0.00002747
658.4	0.00002775
658.6	0.00002804
658.8	0.00002833
659	0.00002862
659.2	0.00002891
659.4	0.00002921
659.6	0.00002951
659.8	0.00002981
660	0.00003119
660.2	0.00003402
660.4	0.00003712
660.6	0.00004050
660.8	0.00004418
661	0.00004820
661.2	0.00005258
661.4	0.00005737
661.6	0.00006259
661.8	0.00006828
662	0.00007449
662.2	0.00008127
662.4	0.00008866
662.6	0.00009417
662.8	0.00009763
663	0.00010122
663.2	0.00010494
663.4	0.00010880
663.6	0.00011279
663.8	0.00011694
664	0.00012123
664.2	0.00012569
664.4	0.00013030
664.6	0.00013509
664.8	0.00014006
665	0.00013674
665.2	0.00012424
665.4	0.00011288
665.6	0.00010256
665.8	0.00009318
666	0.00008466
666.2	0.00007692
666.4	0.00006989
666.6	0.00006350
666.8	0.00005769
667	0.00005242
667.2	0.00004763
667.4	0.00004399
667.6	0.00004170
667.8	0.00003952
668	0.00003746
668.2	0.00003550
668.4	0.00003365
668.6	0.00003189
668.8	0.00003023
669	0.00002865
669.2	0.00002716
669.4	0.00002574
669.6	0.00002440
669.8	0.00002312
670	0.00002220
670.2	0.00002167
670.4	0.00002115
670.6	0.00002065
670.8	0.00002015
671	0.00001967
671.2	0.00001920
671.4	0.00001874
671.6	0.00001830
671.8	0.00001786
672	0.00001743
672.2	0.00001701
672.4	0.00001661
672.6	0.00001637
672.8	0.00001631
673	0.00001625
673.2	0.00001618
673.4	0.00001612
673.6	0.00001606
673.8	0.00001599
674	0.00001593
674.2	0.00001587
674.4	0.00001581
674.6	0.00001575
674.8	0.00001569
675	0.00001541
675.2	0.00001486
675.4	0.00001432
675.6	0.00001381
675.8	0.00001332
676	0.00001284
676.2	0.00001238
676.4	0.00001193
676.6	0.00001150
676.8	0.00001109
677	0.00001069
677.2	0.00001031
677.4	0.00001038
677.6	0.00001127
677.8	0.00001223
678	0.00001328
678.2	0.00001441
678.4	0.00001565
678.6	0.00001698
678.8	0.00001844
679	0.00002001
679.2	0.00002172
679.4	0.00002358
679.6	0.00002560
679.8	0.00002779
680	0.00002988
680.2	0.00003173
680.4	0.00003370
680.6	0.00003579
680.8	0.00003800
681	0.00004036
681.2	0.00004286
681.4	0.00004552
681.6	0.00004834
681.8	0.00005133
682	0.00005451
682.2	0.00005789
682.4	0.00006148
682.6	0.00006277
682.8	0.00006151
683	0.00006028
683.2	0.00005908
683.4	0.00005790
683.6	0.00005674
683.8	0.00005560
684	0.00005449
684.2	0.00005340
684.4	0.00005234
684.6	0.00005129
684.8	0.00005026
685	0.00004939
685.2	0.00004870
685.4	0.00004801
685.6	0.00004734
685.8	0.00004668
686	0.00004602
686.2	0.00004537
686.4	0.00004474
686.6	0.00004411
686.8	0.00004349
687	0.00004288
687.2	0.00004228
687.4	0.00004053
687.6	0.00003716
687.8	0.00003406
688	0.00003123
688.2	0.00002863
688.4	0.00002624
688.6	0.00002406
688.8	0.00002205
689	0.00002022
689.2	0.00001853
689.4	0.00001699
689.6	0.00001558
689.8	0.00001428
690	0.00001340
690.2	0.00001294
690.4	0.00001250
690.6	0.00001208
690.8	0.00001167
691	0.00001128
691.2	0.00001089
691.4	0.00001053
691.6	0.00001017
691.8	0.00000982
692	0.00000949
692.2	0.00000917
692.4	0.00000886
692.6	0.00000872
692.8	0.00000876
693	0.00000879
693.2	0.00000883
693.4	0.00000886
693.6	0.00000890
693.8	0.00000893
694	0.00000897
694.2	0.00000901
694.4	0.00000904
694.6	0.00000908
694.8	0.00000911
695	0.00000899
695.2	0.00000867
695.4	0.00000837
695.6	0.00000807
695.8	0.00000779
696	0.00000751
696.2	0.00000725
696.4	0.00000699
696.6	0.00000674
696.8	0.00000651
697	0.00000628
697.2	0.00000606
697.4	0.00000592
697.6	0.00000589
697.8	0.00000586
698	0.00000584
698.2	0.00000581
698.4	0.00000579
698.6	0.00000577
698.8	0.00000574
699	0.00000572
699.2	0.00000569
699.4	0.00000567
699.6	0.00000564
699.8	0.00000562
700	0.00000564
700.2	0.00000572
700.4	0.00000580
700.6	0.00000588
700.8	0.00000596
701	0.00000604
701.2	0.00000613
701.4	0.00000621
701.6	0.00000630
701.8	0.00000639
702	0.00000648
702.2	0.00000657
702.4	0.00000666
702.6	0.00000652
702.8	0.00000616
703	0.00000581
703.2	0.00000548
703.4	0.00000518
703.6	0.00000489
703.8	0.00000461
704	0.00000435
704.2	0.00000411
704.4	0.00000388
704.6	0.00000366
704.8	0.00000345
705	0.00000330
705.2	0.00000319
705.4	0.00000308
705.6	0.00000298
705.8	0.00000288
706	0.00000278
706.2	0.00000269
706.4	0.00000260
706.6	0.00000251
706.8	0.00000243
707	0.00000235
707.2	0.00000227
707.4	0.00000230
707.6	0.00000250
707.8	0.00000271
708	0.00000295
708.2	0.00000320
708.4	0.00000347
708.6	0.00000377
708.8	0.00000410
709	0.00000445
709.2	0.00000483
709.4	0.00000524
709.6	0.00000569
709.8	0.00000618
710	0.00000659
710.2	0.00000685
710.4	0.00000712
710.6	0.00000740
710.8	0.00000769
711	0.00000799
711.2	0.00000831
711.4	0.00000864
711.6	0.00000898
711.8	0.00000933
712	0.00000970
712.2	0.00001008
712.4	0.00001048
712.6	0.00001095
712.8	0.00001150
713	0.00001208
713.2	0.00001269
713.4	0.00001333
713.6	0.00001401
713.8	0.00001472
714	0.00001546
714.2	0.00001624
714.4	0.00001706
714.6	0.00001793
714.8	0.00001883
715	0.00001944
715.2	0.00001961
715.4	0.00001977
715.6	0.00001995
715.8	0.00002012
716	0.00002029
716.2	0.00002047
716.4	0.00002064
716.6	0.00002082
716.8	0.00002100
717	0.00002118
717.2	0.00002137
717.4	0.00002128
717.6	0.00002082
717.8	0.00002037
718	0.00001992
718.2	0.00001949
718.4	0.00001907
718.6	0.00001865
718.8	0.00001825
719	0.00001785
719.2	0.00001746
719.4	0.00001708
719.6	0.00001671
719.8	0.00001635
720	0.00001616
720.2	0.00001619
720.4	0.00001621
720.6	0.00001623
720.8	0.00001626
721	0.00001628
721.2	0.00001630
721.4	0.00001633
721.6	0.00001635
721.8	0.00001637
722	0.00001640
722.2	0.00001642
722.4	0.00001645
722.6	0.00001639
722.8	0.00001624
723	0.00001610
723.2	0.00001595
723.4	0.00001581
723.6	0.00001567
723.8	0.00001553
724	0.00001539
724.2	0.00001525
724.4	0.00001511
724.6	0.00001498
724.8	0.00001484
725	0.00001457
725.2	0.00001414
725.4	0.00001371
725.6	0.00001331
725.8	0.00001291
726	0.00001252
726.2	0.00001215
726.4	0.00001179
726.6	0.00001144
726.8	0.00001110
727	0.00001077
727.2	0.00001045
727.4	0.00001029
727.6	0.00001033
727.8	0.00001037
728	0.00001041
728.2	0.00001045
728.4	0.00001049
728.6	0.00001053
728.8	0.00001058
729	0.00001062
729.2	0.00001066
729.4	0.00001070
729.6	0.00001075
729.8	0.00001079
730	0.00001077
730.2	0.00001068
730.4	0.00001060
730.6	0.00001051
730.8	0.00001042
731	0.00001034
731.2	0.00001025
731.4	0.00001017
731.6	0.00001009
731.8	0.00001001
732	0.00000992
732.2	0.00000984
732.4	0.00000976
732.6	0.00000990
732.8	0.00001030
733	0.00001072
733.2	0.00001116
733.4	0.00001161
733.6	0.00001208
733.8	0.00001257
734	0.00001309
734.2	0.00001362
734.4	0.00001417
734.6	0.00001475
734.8	0.00001535
735	0.00001583
735.2	0.00001617
735.4	0.00001652
735.6	0.00001687
735.8	0.00001723
736	0.00001760
736.2	0.00001797
736.4	0.00001836
736.6	0.00001875
736.8	0.00001915
737	0.00001956
737.2	0.00001997
737.4	0.00002014
737.6	0.00001997
737.8	0.00001980
738	0.00001963
738.2	0.00001946
738.4	0.00001930
738.6	0.00001914
738.8	0.00001898
739	0.00001882
739.2	0.00001866
739.4	0.00001850
739.6	0.00001834
739.8	0.00001819
740	0.00001831
740.2	0.00001875
740.4	0.00001920
740.6	0.00001966
740.8	0.00002014
741	0.00002062
741.2	0.00002112
741.4	0.00002163
741.6	0.00002215
741.8	0.00002269
742	0.00002324
742.2	0.00002380
742.4	0.00002437
742.6	0.00002493
742.8	0.00002548
743	0.00002604
743.2	0.00002661
743.4	0.00002719
743.6	0.00002779
743.8	0.00002839
744	0.00002902
744.2	0.00002965
744.4	0.00003030
744.6	0.00003096
744.8	0.00003164
745	0.00003284
745.2	0.00003468
745.4	0.00003664
745.6	0.00003870
745.8	0.00004088
746	0.00004318
746.2	0.00004561
746.4	0.00004818
746.6	0.00005089
746.8	0.00005376
747	0.00005679
747.2	0.00005998
747.4	0.00006375
747.6	0.00006825
747.8	0.00007307
748	0.00007822
748.2	0.00008374
748.4	0.00008965
748.6	0.00009598
748.8	0.00010275
749	0.00011000
749.2	0.00011776
749.4	0.00012607
749.6	0.00013496
749.8	0.00014449
750	0.00015278
750.2	0.00015916
750.4	0.00016581
750.6	0.00017273
750.8	0.00017995
751	0.00018747
751.2	0.00019530
751.4	0.00020346
751.6	0.00021196
751.8	0.00022081
752	0.00023004
752.2	0.00023965
752.4	0.00024966
752.6	0.00025443
752.8	0.00025226
753	0.00025011
753.2	0.00024798
753.4	0.00024587
753.6	0.00024378
753.8	0.00024171
754	0.00023965
754.2	0.00023761
754.4	0.00023559
754.6	0.00023358
754.8	0.00023160
755	0.00022966
755.2	0.00022777
755.4	0.00022590
755.6	0.00022405
755.8	0.00022221
756	0.00022039
756.2	0.00021858
756.4	0.00021679
756.6	0.00021501
756.8	0.00021324
757	0.00021149
757.2	0.00020976
757.4	0.00020849
757.6	0.00020780
757.8	0.00020710
758	0.00020641
758.2	0.00020572
758.4	0.00020503
758.6	0.00020434
758.8	0.00020366
759	0.00020298
759.2	0.00020230
759.4	0.00020162
759.6	0.00020095
759.8	0.00020028
760	0.00020129
760.2	0.00020439
760.4	0.00020754
760.6	0.00021073
760.8	0.00021398
761	0.00021728
761.2	0.00022063
761.4	0.00022402
761.6	0.00022748
761.8	0.00023098
762	0.00023454
762.2	0.00023815
762.4	0.00024182
762.6	0.00024436
762.8	0.00024544
763	0.00024652
763.2	0.00024760
763.4	0.00024869
763.6	0.00024979
763.8	0.00025089
764	0.00025199
764.2	0.00025310
764.4	0.00025422
764.6	0.00025534
764.8	0.00025646
765	0.00025619
765.2	0.00025427
765.4	0.00025235
765.6	0.00025046
765.8	0.00024857
766	0.00024670
766.2	0.00024484
766.4	0.00024300
766.6	0.00024117
766.8	0.00023936
767	0.00023756
767.2	0.00023577
767.4	0.00023287
767.6	0.00022873
767.8	0.00022466
768	0.00022067
768.2	0.00021674
768.4	0.00021289
768.6	0.00020910
768.8	0.00020538
769	0.00020173
769.2	0.00019814
769.4	0.00019462
769.6	0.00019116
769.8	0.00018776
770	0.00018607
770.2	0.00018641
770.4	0.00018676
770.6	0.00018711
770.8	0.00018746
771	0.00018781
771.2	0.00018816
771.4	0.00018851
771.6	0.00018886
771.8	0.00018921
772	0.00018956
772.2	0.00018991
772.4	0.00019027
772.6	0.00018985
772.8	0.00018841
773	0.00018699
773.2	0.00018557
773.4	0.00018417
773.6	0.00018277
773.8	0.00018139
774	0.00018002
774.2	0.00017865
774.4	0.00017730
774.6	0.00017596
774.8	0.00017463
775	0.00017526
775.2	0.00017838
775.4	0.00018156
775.6	0.00018479
775.8	0.00018808
776	0.00019142
776.2	0.00019483
776.4	0.00019830
776.6	0.00020182
776.8	0.00020542
777	0.00020907
777.2	0.00021279
777.4	0.00021567
777.6	0.00021757
777.8	0.00021948
778	0.00022140
778.2	0.00022334
778.4	0.00022530
778.6	0.00022728
778.8	0.00022927
779	0.00023128
779.2	0.00023331
779.4	0.00023536
779.6	0.00023742
779.8	0.00023951
780	0.00024714
780.2	0.00025701
780.4	0.00026727
780.6	0.00027794
780.8	0.00028903
781	0.00030057
781.2	0.00031256
781.4	0.00032504
781.6	0.00033801
781.8	0.00035151
782	0.00036554
782.2	0.00037982
782.4	0.00039148
782.6	0.00040349
782.8	0.00041587
783	0.00042863
783.2	0.00044178
783.4	0.00045533
783.6	0.00046930
783.8	0.00048370
784	0.00049855
784.2	0.00051384
784.4	0.00052961
784.6	0.00054586
784.8	0.00056908
785	0.00060099
785.2	0.00063470
785.4	0.00067029
785.6	0.00070788
785.8	0.00074758
786	0.00078950
786.2	0.00083378
786.4	0.00088054
786.6	0.00092992
786.8	0.00097950
787	0.00102700
787.2	0.00107690
787.4	0.00112910
787.6	0.00118390
787.8	0.00124130
788	0.00130160
788.2	0.00136470
788.4	0.00143090
788.6	0.00150040
788.8	0.00157320
789	0.00166490
789.2	0.00177070
789.4	0.00188330
789.6	0.00200300
789.8	0.00213040
790	0.00226580
790.2	0.00240990
790.4	0.00256590
790.6	0.00273390
790.8	0.00291300
791	0.00310370
791.2	0.00330700
791.4	0.00352360
791.6	0.00375430
791.8	0.00400020
792	0.00426220
792.2	0.00454130
792.4	0.00483870
792.6	0.00515560
792.8	0.00549330
793	0.00585300
793.2	0.00623630
793.4	0.00664470
793.6	0.00707990
793.8	0.00752450
794	0.00794380
794.2	0.00838650
794.4	0.00885380
794.6	0.00934720
794.8	0.00986810
795	0.01041800
795.2	0.01099900
795.4	0.01161200
795.6	0.01225900
795.8	0.01296500
796	0.01417200
796.2	0.01511800
796.4	0.01569200
796.6	0.01748200
796.8	0.01877800
797	0.01975200
797.2	0.02129400
797.4	0.02310000
797.6	0.02477800
797.8	0.02653800
798	0.02834500
798.2	0.03116000
798.4	0.03342900
798.6	0.03616400
798.8	0.03963400
799	0.04253400
799.2	0.04597900
799.4	0.05014100
799.6	0.05467100
799.8	0.05959600
800	0.06508400
800.2	0.07069700
800.4	0.07774500
800.6	0.08572600
800.8	0.09422000
801	0.10400000
801.2	0.11500000
801.4	0.12800000
801.6	0.14200000
801.8	0.15800000
802	0.17400000
802.2	0.19500000
802.4	0.21900000
802.6	0.24500000
802.8	0.27600000
803	0.31200000
803.2	0.35300000
803.4	0.40200000
803.6	0.46000000
803.8	0.52900000
804	0.61200000
804.2	0.71500000
804.4	0.83600000
804.6	0.98900000
804.8	1.17600000
805	1.41500000
805.2	1.74500000
805.4	2.15200000
805.6	2.65400000
805.8	3.34800000
806	4.34200000
806.2	5.76700000
806.4	7.88000000
806.6	11.14400000
806.8	16.40900000
807	25.26300000
807.2	40.07400000
807.4	61.98300000
807.6	81.02800000
807.8	80.65700000
808	62.66900000
808.2	44.06500000
808.4	31.04900000
808.6	22.80300000
808.8	17.49000000
809	13.94300000
809.2	11.47700000
809.4	9.69300000
809.6	8.37800000
809.8	7.37500000
810	6.60000000
810.2	5.99700000
810.4	5.50900000
810.6	5.11900000
810.8	4.80000000
811	4.55100000
811.2	4.33600000
811.4	4.16500000
811.6	4.02700000
811.8	3.92000000
812	3.83800000
812.2	3.77400000
812.4	3.73400000
812.6	3.71100000
812.8	3.70700000
813	3.71300000
813.2	3.73700000
813.4	3.77400000
813.6	3.83000000
813.8	3.89400000
814	3.97300000
814.2	4.07100000
814.4	4.18900000
814.6	4.31700000
814.8	4.46600000
815	4.63500000
815.2	4.83900000
815.4	5.05100000
815.6	5.27200000
815.8	5.52700000
816	5.80900000
816.2	6.12900000
816.4	6.48100000
816.6	6.87300000
816.8	7.30300000
817	7.78300000
817.2	8.31900000
817.4	8.91200000
817.6	9.57000000
817.8	10.29700000
818	11.10500000
818.2	12.00600000
818.4	12.99900000
818.6	14.11800000
818.8	15.33000000
819	16.70400000
819.2	18.23700000
819.4	19.88200000
819.6	21.71300000
819.8	23.71800000
820	25.94100000
820.2	28.31500000
820.4	30.89800000
820.6	33.68300000
820.8	36.65200000
821	39.78100000
821.2	43.01600000
821.4	46.38400000
821.6	49.78400000
821.8	53.24600000
822	56.65400000
822.2	59.93700000
822.4	63.12800000
822.6	66.07900000
822.8	68.86300000
823	71.41900000
823.2	73.68700000
823.4	75.74700000
823.6	77.59500000
823.8	79.22600000
824	80.68500000
824.2	81.96800000
824.4	83.11000000
824.6	84.11300000
824.8	85.10400000
825	85.97400000
825.2	86.70200000
825.4	87.43600000
825.6	88.17600000
825.8	88.85600000
826	89.48900000
826.2	90.09600000
826.4	90.56500000
826.6	90.97700000
826.8	91.27400000
827	91.47500000
827.2	91.37800000
827.4	91.21200000
827.6	90.78200000
827.8	90.08400000
828	89.09500000
828.2	87.80900000
828.4	86.22700000
828.6	84.48400000
828.8	82.47300000
829	80.25000000
829.2	77.80900000
829.4	75.21400000
829.6	72.60100000
829.8	69.87700000
830	67.10500000
830.2	64.31700000
830.4	61.50900000
830.6	58.83400000
830.8	56.15300000
831	53.59500000
831.2	51.15400000
831.4	48.82900000
831.6	46.64500000
831.8	44.52400000
832	42.58300000
832.2	40.74800000
832.4	39.02200000
832.6	37.40900000
832.8	35.87100000
833	34.47300000
833.2	33.20900000
833.4	32.03600000
833.6	30.88900000
833.8	29.86600000
834	28.91800000
834.2	28.05400000
834.4	27.27800000
834.6	26.54300000
834.8	25.84400000
835	25.23000000
835.2	24.74600000
835.4	24.27100000
835.6	23.80500000
835.8	23.37600000
836	22.96500000
836.2	22.63900000
836.4	22.34900000
836.6	22.07400000
836.8	21.85300000
837	21.65800000
837.2	21.50300000
837.4	21.37700000
837.6	21.28400000
837.8	21.21800000
838	21.16000000
838.2	21.15500000
838.4	21.16400000
838.6	21.19400000
838.8	21.26800000
839	21.33500000
839.2	21.45600000
839.4	21.60300000
839.6	21.77700000
839.8	21.95600000
840	22.18000000
840.2	22.42500000
840.4	22.67200000
840.6	22.95300000
840.8	23.26900000
841	23.59800000
841.2	23.95600000
841.4	24.32800000
841.6	24.70600000
841.8	25.14100000
842	25.61200000
842.2	26.05400000
842.4	26.53700000
842.6	27.03900000
842.8	27.55000000
843	28.07800000
843.2	28.64000000
843.4	29.21100000
843.6	29.79400000
843.8	30.38800000
844	30.98300000
844.2	31.59400000
844.4	32.21100000
844.6	32.86100000
844.8	33.51300000
845	34.14200000
845.2	34.74600000
845.4	35.36000000
845.6	35.98500000
845.8	36.65200000
846	37.31300000
846.2	37.94700000
846.4	38.62300000
846.6	39.26500000
846.8	39.87800000
847	40.51900000
847.2	41.16700000
847.4	41.80400000
847.6	42.46500000
847.8	43.06500000
848	43.66200000
848.2	44.28500000
848.4	44.89700000
848.6	45.50900000
848.8	46.15400000
849	46.77800000
849.2	47.44200000
849.4	48.03900000
849.6	48.63800000
849.8	49.31700000
850	50.04700000
850.2	50.76400000
850.4	51.42000000
850.6	52.13600000
850.8	52.84700000
851	53.61100000
851.2	54.35500000
851.4	55.17300000
851.6	56.02800000
851.8	56.83100000
852	57.65000000
852.2	58.51700000
852.4	59.38400000
852.6	60.22600000
852.8	61.16200000
853	62.08200000
853.2	62.95100000
853.4	63.82500000
853.6	64.73200000
853.8	65.63700000
854	66.46700000
854.2	67.28300000
854.4	68.07100000
854.6	68.84400000
854.8	69.50000000
855	70.08500000
855.2	70.54000000
855.4	70.99900000
855.6	71.46100000
855.8	71.84200000
856	72.07600000
856.2	72.19900000
856.4	72.24800000
856.6	72.14400000
856.8	71.94800000
857	71.64200000
857.2	71.22400000
857.4	70.73800000
857.6	70.11100000
857.8	69.36500000
858	68.49700000
858.2	67.59100000
858.4	66.61700000
858.6	65.53100000
858.8	64.43400000
859	63.30000000
859.2	62.12600000
859.4	60.89400000
859.6	59.64900000
859.8	58.39500000
860	57.18100000
860.2	55.98300000
860.4	54.74100000
860.6	53.51000000
860.8	52.32100000
861	51.20600000
861.2	50.11100000
861.4	48.97400000
861.6	47.90500000
861.8	46.89700000
862	45.88400000
862.2	44.92000000
862.4	44.00200000
862.6	43.17400000
862.8	42.36100000
863	41.56000000
863.2	40.82400000
863.4	40.09900000
863.6	39.46200000
863.8	38.83300000
864	38.23800000
864.2	37.67300000
864.4	37.15200000
864.6	36.67700000
864.8	36.25500000
865	35.83800000
865.2	35.47200000
865.4	35.11100000
865.6	34.75300000
865.8	34.47600000
866	34.20200000
866.2	33.98000000
866.4	33.74800000
866.6	33.59000000
866.8	33.44800000
867	33.33000000
867.2	33.21100000
867.4	33.11800000
867.6	33.10300000
867.8	33.09400000
868	33.08000000
868.2	33.08600000
868.4	33.10500000
868.6	33.15500000
868.8	33.25600000
869	33.34800000
869.2	33.44600000
869.4	33.58800000
869.6	33.79300000
869.8	33.98400000
870	34.17900000
870.2	34.37600000
870.4	34.56700000
870.6	34.81300000
870.8	35.08400000
871	35.39400000
871.2	35.69700000
871.4	35.97500000
871.6	36.25900000
871.8	36.60800000
872	36.95700000
872.2	37.33100000
872.4	37.69300000
872.6	38.05200000
872.8	38.44500000
873	38.81500000
873.2	39.21000000
873.4	39.65700000
873.6	40.05400000
873.8	40.47900000
874	40.90500000
874.2	41.31600000
874.4	41.75300000
874.6	42.20400000
874.8	42.60500000
875	43.02900000
875.2	43.45700000
875.4	43.88800000
875.6	44.32500000
875.8	44.77000000
876	45.19600000
876.2	45.58400000
876.4	45.95400000
876.6	46.40100000
876.8	46.80400000
877	47.22300000
877.2	47.60200000
877.4	47.97600000
877.6	48.37200000
877.8	48.77600000
878	49.14800000
878.2	49.51300000
878.4	49.87900000
878.6	50.18700000
878.8	50.57200000
879	50.92800000
879.2	51.32200000
879.4	51.69700000
879.6	52.04500000
879.8	52.39700000
880	52.80200000
880.2	53.20100000
880.4	53.55600000
880.6	53.94800000
880.8	54.38000000
881	54.76800000
881.2	55.17600000
881.4	55.63500000
881.6	56.06700000
881.8	56.55800000
882	57.04000000
882.2	57.51600000
882.4	58.05000000
882.6	58.55100000
882.8	59.08200000
883	59.66100000
883.2	60.24200000
883.4	60.86300000
883.6	61.49000000
883.8	62.10500000
884	62.74000000
884.2	63.42000000
884.4	64.09900000
884.6	64.82800000
884.8	65.59500000
885	66.33800000
885.2	67.05700000
885.4	67.78400000
885.6	68.51800000
885.8	69.31700000
886	70.15900000
886.2	71.02800000
886.4	71.86500000
886.6	72.73100000
886.8	73.65100000
887	74.55800000
887.2	75.49700000
887.4	76.46000000
887.6	77.35000000
887.8	78.24200000
888	79.08300000
888.2	80.00200000
888.4	80.83400000
888.6	81.74600000
888.8	82.59700000
889	83.42600000
889.2	84.26100000
889.4	84.98300000
889.6	85.75400000
889.8	86.50500000
890	87.22100000
890.2	87.88600000
890.4	88.47600000
890.6	89.07700000
890.8	89.64500000
891	90.16300000
891.2	90.62900000
891.4	91.00900000
891.6	91.39800000
891.8	91.75700000
892	91.98600000
892.2	92.24600000
892.4	92.49200000
892.6	92.64200000
892.8	92.75000000
893	92.84600000
893.2	92.89700000
893.4	92.92600000
893.6	92.91100000
893.8	92.80300000
894	92.75100000
894.2	92.66600000
894.4	92.52500000
894.6	92.39200000
894.8	92.26400000
895	92.04400000
895.2	91.86000000
895.4	91.67700000
895.6	91.49400000
895.8	91.31000000
896	91.09700000
896.2	90.84900000
896.4	90.71700000
896.6	90.48500000
896.8	90.28100000
897	90.09400000
897.2	89.94700000
897.4	89.81200000
897.6	89.69500000
897.8	89.54600000
898	89.39500000
898.2	89.25700000
898.4	89.11600000
898.6	89.00100000
898.8	88.94800000
899	88.83200000
899.2	88.77700000
899.4	88.72900000
899.6	88.63900000
899.8	88.67600000
900	88.65200000
900.2	88.72400000
900.4	88.65700000
900.6	88.68100000
900.8	88.63600000
901	88.69300000
901.2	88.72600000
901.4	88.75000000
901.6	88.79100000
901.8	88.86900000
902	88.85900000
902.2	88.91800000
902.4	88.91700000
902.6	88.90100000
902.8	88.86800000
903	88.87400000
903.2	88.86200000
903.4	88.75400000
903.6	88.66900000
903.8	88.57400000
904	88.46500000
904.2	88.32700000
904.4	88.09300000
904.6	87.89600000
904.8	87.70200000
905	87.48600000
905.2	87.16300000
905.4	86.84100000
905.6	86.52000000
905.8	86.23500000
906	85.84000000
906.2	85.43400000
906.4	84.96100000
906.6	84.48800000
906.8	83.98700000
907	83.44100000
907.2	82.91700000
907.4	82.34500000
907.6	81.75900000
907.8	81.15500000
908	80.52100000
908.2	79.86000000
908.4	79.16100000
908.6	78.50600000
908.8	77.85800000
909	77.16500000
909.2	76.47900000
909.4	75.80500000
909.6	75.09000000
909.8	74.39800000
910	73.75400000
910.2	73.14100000
910.4	72.37200000
910.6	71.71300000
910.8	71.03200000
911	70.41800000
911.2	69.78800000
911.4	69.20200000
911.6	68.59800000
911.8	68.05200000
912	67.50900000
912.2	66.99700000
912.4	66.47900000
912.6	66.01400000
912.8	65.56500000
913	65.13300000
913.2	64.72100000
913.4	64.37200000
913.6	64.00900000
913.8	63.71300000
914	63.35900000
914.2	63.11600000
914.4	62.87000000
914.6	62.64800000
914.8	62.47300000
915	62.31000000
915.2	62.22500000
915.4	62.14000000
915.6	62.05500000
915.8	61.86000000
916	61.84100000
916.2	61.91300000
916.4	61.96800000
916.6	62.01100000
916.8	62.15100000
917	62.27300000
917.2	62.47500000
917.4	62.64200000
917.6	62.90600000
917.8	63.13200000
918	63.39500000
918.2	63.68600000
918.4	64.03000000
918.6	64.38600000
918.8	64.70600000
919	65.15600000
919.2	65.60300000
919.4	66.10700000
919.6	66.63500000
919.8	67.11700000
920	67.63800000
920.2	68.32600000
920.4	68.83800000
920.6	69.44600000
920.8	70.09600000
921	70.73800000
921.2	71.51100000
921.4	72.21500000
921.6	72.96200000
921.8	73.61500000
922	74.38100000
922.2	75.09300000
922.4	75.86600000
922.6	76.66100000
922.8	77.41100000
923	78.27800000
923.2	79.04900000
923.4	79.80700000
923.6	80.54700000
923.8	81.30800000
924	82.08900000
924.2	82.85800000
924.4	83.54600000
924.6	84.24300000
924.8	84.88800000
925	85.45000000
925.2	86.01700000
925.4	86.58700000
925.6	87.16100000
925.8	87.63600000
926	88.04800000
926.2	88.42700000
926.4	88.75700000
926.6	88.99900000
926.8	89.24600000
927	89.40200000
927.2	89.50100000
927.4	89.58600000
927.6	89.61500000
927.8	89.56100000
928	89.43000000
928.2	89.22400000
928.4	89.04200000
928.6	88.77600000
928.8	88.47700000
929	88.14200000
929.2	87.73300000
929.4	87.33100000
929.6	86.81200000
929.8	86.35500000
930	85.82900000
930.2	85.32800000
930.4	84.69900000
930.6	84.08400000
930.8	83.48200000
931	82.78600000
931.2	82.21200000
931.4	81.58700000
931.6	80.92700000
931.8	80.27200000
932	79.65000000
932.2	79.02000000
932.4	78.34800000
932.6	77.74400000
932.8	77.15500000
933	76.53100000
933.2	75.94700000
933.4	75.27700000
933.6	74.78400000
933.8	74.27900000
934	73.63900000
934.2	73.16600000
934.4	72.60700000
934.6	72.26200000
934.8	71.80300000
935	71.22200000
935.2	70.78300000
935.4	70.34600000
935.6	69.91200000
935.8	69.23300000
936	68.95500000
936.2	68.58700000
936.4	68.22600000
936.6	67.88000000
936.8	67.60800000
937	67.30700000
937.2	67.08700000
937.4	67.01100000
937.6	66.64600000
937.8	66.32200000
938	66.22300000
938.2	65.99800000
938.4	65.88800000
938.6	65.58800000
938.8	65.41000000
939	65.33900000
939.2	65.10800000
939.4	64.99300000
939.6	64.85900000
939.8	64.76400000
940	64.67000000
940.2	64.58800000
940.4	64.49900000
940.6	64.40400000
940.8	64.30100000
941	64.23000000
941.2	64.12500000
941.4	64.08500000
941.6	64.00700000
941.8	63.88000000
942	63.83100000
942.2	63.68400000
942.4	63.60600000
942.6	63.45900000
942.8	63.24600000
943	63.30300000
943.2	63.11500000
943.4	62.97500000
943.6	62.87000000
943.8	62.68100000
944	62.58700000
944.2	62.29900000
944.4	62.30800000
944.6	62.17800000
944.8	61.94000000
945	61.72200000
945.2	61.47600000
945.4	61.23000000
945.6	60.98500000
945.8	60.60700000
946	60.37100000
946.2	59.95800000
946.4	59.79900000
946.6	59.55900000
946.8	59.22700000
947	58.96800000
947.2	58.61800000
947.4	58.31500000
947.6	58.00500000
947.8	57.63400000
948	57.32800000
948.2	56.88700000
948.4	56.43800000
948.6	56.25100000
948.8	55.88700000
949	55.54000000
949.2	55.18900000
949.4	54.89000000
949.6	54.46500000
949.8	54.17100000
950	53.81300000
950.2	53.45400000
950.4	53.08000000
950.6	52.69900000
950.8	52.38100000
951	52.04400000
951.2	51.74400000
951.4	51.49100000
951.6	51.19500000
951.8	50.87300000
952	50.63700000
952.2	50.37100000
952.4	49.98500000
952.6	49.75800000
952.8	49.47700000
953	49.23500000
953.2	49.01300000
953.4	48.80100000
953.6	48.65200000
953.8	48.43200000
954	48.27100000
954.2	48.16400000
954.4	48.04600000
954.6	47.77000000
954.8	47.65200000
955	47.50000000
955.2	47.40600000
955.4	47.31200000
955.6	47.21900000
955.8	47.11500000
956	47.09100000
956.2	47.09500000
956.4	47.03200000
956.6	47.03200000
956.8	47.03400000
957	47.01200000
957.2	47.04100000
957.4	47.12600000
957.6	47.18200000
957.8	47.32000000
958	47.46400000
958.2	47.53000000
958.4	47.64300000
958.6	47.75300000
958.8	47.82700000
959	48.02300000
959.2	48.22000000
959.4	48.39600000
959.6	48.66400000
959.8	48.90400000
960	49.10400000
960.2	49.38300000
960.4	49.61600000
960.6	49.82200000
960.8	50.12800000
961	50.44600000
961.2	50.76900000
961.4	51.12100000
961.6	51.49800000
961.8	51.79700000
962	52.16800000
962.2	52.53600000
962.4	52.87300000
962.6	53.32500000
962.8	53.75300000
963	54.14900000
963.2	54.59300000
963.4	55.02500000
963.6	55.43100000
963.8	55.87000000
964	56.33700000
964.2	56.81400000
964.4	57.34200000
964.6	57.90900000
964.8	58.30100000
965	58.78200000
965.2	59.35200000
965.4	59.92700000
965.6	60.50800000
965.8	61.01100000
966	61.51000000
966.2	61.94700000
966.4	62.44500000
966.6	62.99600000
966.8	63.40000000
967	63.89400000
967.2	64.36300000
967.4	64.76300000
967.6	65.19900000
967.8	65.67100000
968	66.09600000
968.2	66.45300000
968.4	66.87100000
968.6	67.17400000
968.8	67.48800000
969	67.89200000
969.2	68.21500000
969.4	68.53300000
969.6	68.89400000
969.8	69.18500000
970	69.44000000
970.2	69.68300000
970.4	69.87700000
970.6	70.02000000
970.8	70.24700000
971	70.49700000
971.2	70.61800000
971.4	70.69400000
971.6	70.84000000
971.8	70.90900000
972	71.01100000
972.2	71.17300000
972.4	71.28700000
972.6	71.25100000
972.8	71.24600000
973	71.29400000
973.2	71.24900000
973.4	71.29500000
973.6	71.36500000
973.8	71.31600000
974	71.19900000
974.2	71.17300000
974.4	71.14700000
974.6	71.08200000
974.8	71.05200000
975	71.10500000
975.2	71.02500000
975.4	70.94400000
975.6	70.86400000
975.8	70.63600000
976	70.67800000
976.2	70.63300000
976.4	70.59400000
976.6	70.57400000
976.8	70.52200000
977	70.46100000
977.2	70.44300000
977.4	70.45700000
977.6	70.45800000
977.8	70.43200000
978	70.43700000
978.2	70.37000000
978.4	70.36000000
978.6	70.40100000
978.8	70.49600000
979	70.54900000
979.2	70.53500000
979.4	70.61300000
979.6	70.73100000
979.8	70.87300000
980	71.00900000
980.2	71.20500000
980.4	71.22000000
980.6	71.26600000
980.8	71.47700000
981	71.74700000
981.2	71.95000000
981.4	72.10000000
981.6	72.28700000
981.8	72.55400000
982	72.76900000
982.2	73.04200000
982.4	73.37800000
982.6	73.58800000
982.8	73.81600000
983	74.17400000
983.2	74.57300000
983.4	74.88200000
983.6	75.16000000
983.8	75.51200000
984	75.89600000
984.2	76.23000000
984.4	76.64000000
984.6	77.09800000
984.8	77.48000000
985	77.80900000
985.2	78.25700000
985.4	78.70800000
985.6	79.16100000
985.8	79.70700000
986	80.14800000
986.2	80.49700000
986.4	80.93000000
986.6	81.48800000
986.8	81.88900000
987	82.25800000
987.2	82.71100000
987.4	83.17700000
987.6	83.64400000
987.8	84.03700000
988	84.45300000
988.2	84.85400000
988.4	85.25700000
988.6	85.57800000
988.8	85.99300000
989	86.31000000
989.2	86.58600000
989.4	86.83700000
989.6	87.20500000
989.8	87.46400000
990	87.70900000
990.2	87.91000000
990.4	88.10900000
990.6	88.37700000
990.8	88.42300000
991	88.42400000
991.2	88.59300000
991.4	88.67300000
991.6	88.67700000
991.8	88.56700000
992	88.55900000
992.2	88.59800000
992.4	88.47100000
992.6	88.25400000
992.8	88.02700000
993	87.88700000
993.2	87.67600000
993.4	87.40900000
993.6	87.10700000
993.8	86.84800000
994	86.43500000
994.2	86.00600000
994.4	85.63800000
994.6	85.23100000
994.8	84.80400000
995	84.32400000
995.2	83.72500000
995.4	83.13000000
995.6	82.53900000
995.8	81.82200000
996	81.28300000
996.2	80.72000000
996.4	80.12600000
996.6	79.42300000
996.8	78.75900000
997	78.22500000
997.2	77.61600000
997.4	76.87100000
997.6	76.20700000
997.8	75.58000000
998	75.01900000
998.2	74.27800000
998.4	73.52500000
998.6	72.84700000
998.8	72.26500000
999	71.55900000
999.2	70.78300000
999.4	70.11300000
999.6	69.49300000
999.8	68.90200000
1000	68.18000000
1000.2	67.47100000
1000.4	66.90700000
1000.6	66.38200000
1000.8	65.69700000
1001	65.01100000
1001.2	64.45100000
1001.4	63.98400000
1001.6	63.46300000
1001.8	62.84300000
1002	62.21800000
1002.2	61.74500000
1002.4	61.29400000
1002.6	60.75400000
1002.8	60.18600000
1003	59.73500000
1003.2	59.31100000
1003.4	58.85700000
1003.6	58.41700000
1003.8	58.02600000
1004	57.58300000
1004.2	57.16300000
1004.4	56.82400000
1004.6	56.46100000
1004.8	56.14200000
1005	55.80900000
1005.2	56.60600000
1005.4	56.16000000
1005.6	55.79600000
1005.8	55.54200000
1006	55.29700000
1006.2	55.00200000
1006.4	54.72900000
1006.6	54.46200000
1006.8	54.26000000
1007	54.11800000
1007.2	53.80200000
1007.4	53.57600000
1007.6	53.45600000
1007.8	53.34000000
1008	53.18100000
1008.2	53.12900000
1008.4	53.04400000
1008.6	52.88500000
1008.8	52.79600000
1009	52.73300000
1009.2	52.63600000
1009.4	52.59600000
1009.6	52.57500000
1009.8	52.56400000
1010	52.65500000
1010.2	52.60600000
1010.4	52.56000000
1010.6	52.66200000
1010.8	52.77900000
1011	52.82700000
1011.2	52.84600000
1011.4	52.89400000
1011.6	53.08300000
1011.8	53.24500000
1012	53.36600000
1012.2	53.48100000
1012.4	53.62300000
1012.6	53.82300000
1012.8	54.03500000
1013	54.28900000
1013.2	54.49300000
1013.4	54.71100000
1013.6	54.92500000
1013.8	55.22500000
1014	55.50400000
1014.2	55.81700000
1014.4	56.07900000
1014.6	56.48200000
1014.8	56.82600000
1015	57.15600000
1015.2	57.51400000
1015.4	57.96000000
1015.6	58.37000000
1015.8	58.75100000
1016	59.22800000
1016.2	59.65200000
1016.4	60.13200000
1016.6	60.56800000
1016.8	61.14500000
1017	61.81100000
1017.2	62.34900000
1017.4	62.75600000
1017.6	63.39700000
1017.8	64.05000000
1018	64.63200000
1018.2	65.26000000
1018.4	65.84300000
1018.6	66.52900000
1018.8	67.23300000
1019	67.88400000
1019.2	68.68700000
1019.4	69.33400000
1019.6	70.00000000
1019.8	70.77500000
1020	71.62400000
1020.2	72.35000000
1020.4	73.11400000
1020.6	74.01700000
1020.8	74.71800000
1021	75.56200000
1021.2	76.33000000
1021.4	77.16700000
1021.6	77.98500000
1021.8	78.71100000
1022	79.60800000
1022.2	80.53900000
1022.4	81.30500000
1022.6	82.12600000
1022.8	82.96200000
1023	83.73600000
1023.2	84.52400000
1023.4	85.43200000
1023.6	86.17700000
1023.8	86.93200000
1024	87.61800000
1024.2	88.35500000
1024.4	89.13800000
1024.6	89.71700000
1024.8	90.33200000
1025	90.72500000
1025.2	90.89800000
1025.4	91.40100000
1025.6	92.03800000
1025.8	92.55500000
1026	92.96200000
1026.2	93.32300000
1026.4	93.65600000
1026.6	94.09900000
1026.8	94.32800000
1027	94.56700000
1027.2	94.67400000
1027.4	94.78700000
1027.6	94.80800000
1027.8	94.87700000
1028	94.85000000
1028.2	94.87800000
1028.4	94.74500000
1028.6	94.56300000
1028.8	94.48400000
1029	94.14000000
1029.2	93.87800000
1029.4	93.48400000
1029.6	93.02400000
1029.8	92.52300000
1030	92.08400000
1030.2	91.57900000
1030.4	90.90500000
1030.6	90.31300000
1030.8	89.78800000
1031	89.22400000
1031.2	88.56600000
1031.4	87.77600000
1031.6	87.05100000
1031.8	86.32400000
1032	85.58200000
1032.2	84.89200000
1032.4	84.04100000
1032.6	83.30200000
1032.8	82.47200000
1033	81.54100000
1033.2	80.75200000
1033.4	80.12800000
1033.6	79.29300000
1033.8	78.57000000
1034	77.59100000
1034.2	76.83000000
1034.4	76.05300000
1034.6	75.26800000
1034.8	74.54300000
1035	73.78100000
1035.2	73.02300000
1035.4	72.31000000
1035.6	71.47400000
1035.8	70.67700000
1036	70.14900000
1036.2	69.41300000
1036.4	68.79900000
1036.6	68.18000000
1036.8	67.46900000
1037	66.85500000
1037.2	66.23800000
1037.4	65.69400000
1037.6	65.16000000
1037.8	64.62600000
1038	64.13200000
1038.2	63.51200000
1038.4	63.02400000
1038.6	62.56700000
1038.8	62.17500000
1039	61.77600000
1039.2	61.42900000
1039.4	60.96900000
1039.6	60.56600000
1039.8	60.20900000
1040	59.83600000
1040.2	59.49500000
1040.4	59.25400000
1040.6	58.99300000
1040.8	58.71900000
1041	58.54500000
1041.2	58.22600000
1041.4	57.96500000
1041.6	57.81500000
1041.8	57.65900000
1042	57.58300000
1042.2	57.52200000
1042.4	57.30700000
1042.6	57.11000000
1042.8	57.08900000
1043	57.02600000
1043.2	56.94700000
1043.4	57.04000000
1043.6	57.08400000
1043.8	57.07500000
1044	57.15200000
1044.2	57.11800000
1044.4	57.14000000
1044.6	57.31400000
1044.8	57.32200000
1045	57.42400000
1045.2	57.44600000
1045.4	57.57300000
1045.6	57.61800000
1045.8	57.83700000
1046	58.20800000
1046.2	58.27100000
1046.4	58.73600000
1046.6	58.81500000
1046.8	58.99600000
1047	59.31500000
1047.2	59.61800000
1047.4	60.03700000
1047.6	60.46900000
1047.8	60.80500000
1048	61.14600000
1048.2	61.64600000
1048.4	61.92100000
1048.6	62.25800000
1048.8	62.84300000
1049	63.28100000
1049.2	63.79400000
1049.4	64.45700000
1049.6	64.87800000
1049.8	65.40900000
1050	66.02100000
1050.2	66.44300000
1050.4	67.10600000
1050.6	67.68800000
1050.8	68.32900000
1051	69.00100000
1051.2	69.68400000
1051.4	70.30200000
1051.6	71.01500000
1051.8	71.71200000
1052	72.40200000
1052.2	73.18000000
1052.4	73.81300000
1052.6	74.68500000
1052.8	75.48600000
1053	76.21100000
1053.2	77.00500000
1053.4	77.75700000
1053.6	78.51600000
1053.8	79.22100000
1054	79.99000000
1054.2	80.77000000
1054.4	81.64500000
1054.6	82.42400000
1054.8	83.18700000
1055	84.07700000
1055.2	84.71500000
1055.4	85.50400000
1055.6	86.27300000
1055.8	86.90700000
1056	87.60600000
1056.2	88.31000000
1056.4	89.05800000
1056.6	89.73200000
1056.8	90.27000000
1057	90.90200000
1057.2	91.42200000
1057.4	91.86000000
1057.6	92.43300000
1057.8	92.73400000
1058	93.15900000
1058.2	93.50900000
1058.4	93.87200000
1058.6	94.16000000
1058.8	94.42600000
1059	94.60000000
1059.2	94.75000000
1059.4	94.92600000
1059.6	94.91300000
1059.8	94.95400000
1060	94.82500000
1060.2	94.85500000
1060.4	94.70400000
1060.6	94.50700000
1060.8	94.39000000
1061	94.09400000
1061.2	93.84600000
1061.4	93.52900000
1061.6	93.23600000
1061.8	92.71500000
1062	92.40500000
1062.2	91.83200000
1062.4	91.39700000
1062.6	90.82300000
1062.8	90.21900000
1063	89.69600000
1063.2	88.97300000
1063.4	88.40500000
1063.6	87.79500000
1063.8	87.04100000
1064	86.57600000
1064.2	85.88600000
1064.4	85.02900000
1064.6	84.25100000
1064.8	83.61500000
1065	82.82200000
1065.2	81.96600000
1065.4	81.19600000
1065.6	80.47800000
1065.8	79.74900000
1066	79.10000000
1066.2	78.28800000
1066.4	77.53100000
1066.6	77.00900000
1066.8	76.28200000
1067	75.60100000
1067.2	75.07300000
1067.4	74.22000000
1067.6	73.71100000
1067.8	72.92800000
1068	72.18300000
1068.2	71.61800000
1068.4	70.86200000
1068.6	70.28000000
1068.8	69.78100000
1069	69.14100000
1069.2	68.78400000
1069.4	68.14200000
1069.6	67.65600000
1069.8	67.29100000
1070	66.58200000
1070.2	66.18900000
1070.4	65.62200000
1070.6	65.10600000
1070.8	64.69100000
1071	64.23100000
1071.2	63.82800000
1071.4	63.37500000
1071.6	63.17100000
1071.8	62.77500000
1072	62.34500000
1072.2	62.09900000
1072.4	61.75100000
1072.6	61.51300000
1072.8	61.25400000
1073	60.78800000
1073.2	60.57100000
1073.4	60.37400000
1073.6	60.11300000
1073.8	59.85000000
1074	59.60000000
1074.2	59.52800000
1074.4	59.25500000
1074.6	59.24200000
1074.8	59.11600000
1075	58.98400000
1075.2	58.88100000
1075.4	58.75000000
1075.6	58.72500000
1075.8	58.57200000
1076	58.46500000
1076.2	58.48600000
1076.4	58.42000000
1076.6	58.39900000
1076.8	58.35000000
1077	58.38400000
1077.2	58.33100000
1077.4	58.32200000
1077.6	58.46500000
1077.8	58.42300000
1078	58.53500000
1078.2	58.64300000
1078.4	58.66900000
1078.6	58.86500000
1078.8	58.99500000
1079	59.13600000
1079.2	59.20000000
1079.4	59.28100000
1079.6	59.60700000
1079.8	59.65600000
1080	59.85800000
1080.2	60.14300000
1080.4	60.26400000
1080.6	60.50400000
1080.8	60.66600000
1081	60.83300000
1081.2	61.09100000
1081.4	61.35100000
1081.6	61.56400000
1081.8	61.92300000
1082	62.11300000
1082.2	62.35600000
1082.4	62.68000000
1082.6	63.05900000
1082.8	63.40300000
1083	63.67000000
1083.2	64.02200000
1083.4	64.21400000
1083.6	64.66500000
1083.8	65.07600000
1084	65.45200000
1084.2	65.70000000
1084.4	66.13700000
1084.6	66.47700000
1084.8	66.80300000
1085	67.13700000
1085.2	67.55900000
1085.4	67.99400000
1085.6	68.39200000
1085.8	68.93800000
1086	69.34400000
1086.2	69.82700000
1086.4	70.10600000
1086.6	70.48800000
1086.8	71.03900000
1087	71.38400000
1087.2	71.93800000
1087.4	72.21900000
1087.6	72.81700000
1087.8	73.08900000
1088	73.66800000
1088.2	73.97200000
1088.4	74.50100000
1088.6	74.85300000
1088.8	75.27200000
1089	75.70600000
1089.2	76.16100000
1089.4	76.55800000
1089.6	77.02300000
1089.8	77.45600000
1090	77.88900000
1090.2	77.95500000
1090.4	78.61100000
1090.6	78.98200000
1090.8	79.34600000
1091	79.82100000
1091.2	80.04600000
1091.4	80.36000000
1091.6	80.52500000
1091.8	81.37800000
1092	81.55900000
1092.2	82.14900000
1092.4	82.26300000
1092.6	82.77900000
1092.8	83.11500000
1093	83.33500000
1093.2	83.90600000
1093.4	84.22200000
1093.6	84.65300000
1093.8	84.96400000
1094	85.30600000
1094.2	85.36400000
1094.4	85.76300000
1094.6	86.26700000
1094.8	86.41300000
1095	86.59100000
1095.2	86.88600000
1095.4	87.26600000
1095.6	87.55000000
1095.8	87.81400000
1096	87.91800000
1096.2	88.30200000
1096.4	88.35200000
1096.6	88.80000000
1096.8	89.02900000
1097	89.29600000
1097.2	89.48400000
1097.4	89.85500000
1097.6	89.81100000
1097.8	90.26500000
1098	90.07600000
1098.2	90.58700000
1098.4	90.64000000
1098.6	90.96700000
1098.8	90.94700000
1099	91.15400000
1099.2	91.18500000
1099.4	91.39800000
1099.6	91.67200000
1099.8	91.65400000
1100	91.91900000
1100.2	92.01500000
1100.4	91.99600000
1100.6	92.32700000
1100.8	92.40100000
1101	92.37700000
1101.2	92.92100000
1101.4	92.75900000
1101.6	92.77800000
1101.8	92.85800000
1102	93.05500000
1102.2	93.05800000
1102.4	93.07700000
1102.6	92.91000000
1102.8	93.34600000
1103	93.42600000
1103.2	93.61000000
1103.4	93.64400000
1103.6	93.59300000
1103.8	93.45800000
1104	93.72700000
1104.2	93.73100000
1104.4	93.82600000
1104.6	93.99900000
1104.8	93.90400000
1105	94.10000000
1105.2	94.15900000
1105.4	93.87900000
1105.6	94.29500000
1105.8	94.03200000
1106	94.23900000
1106.2	94.17000000
1106.4	94.32400000
1106.6	93.84700000
1106.8	94.12400000
1107	94.04000000
1107.2	94.06400000
1107.4	93.88600000
1107.6	93.87400000
1107.8	93.96500000
1108	94.19400000
1108.2	93.90400000
1108.4	93.85400000
1108.6	93.89100000
1108.8	93.89800000
1109	93.51200000
1109.2	93.51100000
1109.4	93.55400000
1109.6	93.69800000
1109.8	93.32300000
1110	93.28900000
1110.2	93.11000000
1110.4	92.95200000
1110.6	92.74100000
1110.8	92.76300000
1111	92.50600000
1111.2	92.32000000
1111.4	92.23800000
1111.6	92.24400000
1111.8	91.98400000
1112	91.95600000
1112.2	91.67900000
1112.4	91.62300000
1112.6	91.67400000
1112.8	91.33000000
1113	91.16100000
1113.2	90.81000000
1113.4	90.76600000
1113.6	90.59400000
1113.8	90.35300000
1114	90.00900000
1114.2	89.86200000
1114.4	89.93900000
1114.6	89.74400000
1114.8	89.22100000
1115	89.39200000
1115.2	89.21700000
1115.4	88.75200000
1115.6	88.17500000
1115.8	88.24200000
1116	87.79200000
1116.2	88.03100000
1116.4	87.89100000
1116.6	87.27700000
1116.8	87.06900000
1117	86.93800000
1117.2	86.88500000
1117.4	86.79000000
1117.6	86.33700000
1117.8	86.20000000
1118	85.72000000
1118.2	85.39400000
1118.4	85.58800000
1118.6	85.27500000
1118.8	85.18200000
1119	85.20200000
1119.2	84.86800000
1119.4	84.85300000
1119.6	84.26200000
1119.8	84.48100000
1120	83.90300000
1120.2	84.08500000
1120.4	84.04200000
1120.6	83.61800000
1120.8	83.33300000
1121	83.78000000
1121.2	83.63500000
1121.4	83.49000000
1121.6	83.34600000
1121.8	83.20100000
1122	83.05800000
1122.2	82.92500000
1122.4	82.79300000
1122.6	82.66100000
1122.8	82.52800000
1123	82.39800000
1123.2	82.31800000
1123.4	82.23700000
1123.6	82.15700000
1123.8	82.07700000
1124	81.99800000
1124.2	81.94400000
1124.4	81.89100000
1124.6	81.83700000
1124.8	81.78400000
1125	81.73200000
1125.2	81.74800000
1125.4	81.76300000
1125.6	81.77900000
1125.8	81.79400000
1126	81.81100000
1126.2	81.87700000
1126.4	81.94400000
1126.6	82.01000000
1126.8	82.07700000
1127	82.14600000
1127.2	82.27400000
1127.4	82.40200000
1127.6	82.53000000
1127.8	82.65900000
1128	82.78700000
1128.2	82.90900000
1128.4	83.03100000
1128.6	83.15400000
1128.8	83.27600000
1129	83.39900000
1129.2	83.51500000
1129.4	83.63100000
1129.6	83.74700000
1129.8	83.86400000
1130	83.98300000
1130.2	84.18400000
1130.4	84.38500000
1130.6	84.58700000
1130.8	84.79000000
1131	84.99300000
1131.2	85.23600000
1131.4	85.48000000
1131.6	85.72500000
1131.8	85.97000000
1132	86.21600000
1132.2	86.47000000
1132.4	86.72600000
1132.6	86.98200000
1132.8	87.23900000
1133	87.49700000
1133.2	87.75600000
1133.4	88.01700000
1133.6	88.27800000
1133.8	88.54000000
1134	88.80500000
1134.2	89.11900000
1134.4	89.43400000
1134.6	89.75100000
1134.8	90.06800000
1135	90.38600000
1135.2	90.62500000
1135.4	90.86600000
1135.6	91.10700000
1135.8	91.34900000
1136	91.59100000
1136.2	91.80100000
1136.4	92.01000000
1136.6	92.22100000
1136.8	92.43100000
1137	92.64200000
1137.2	92.82700000
1137.4	93.01300000
1137.6	93.19900000
1137.8	93.38600000
1138	93.57000000
1138.2	93.69000000
1138.4	93.81000000
1138.6	93.92900000
1138.8	94.04900000
1139	94.16800000
1139.2	94.22600000
1139.4	94.28300000
1139.6	94.34100000
1139.8	94.39800000
1140	94.45500000
1140.2	94.43300000
1140.4	94.41200000
1140.6	94.39000000
1140.8	94.36800000
1141	94.34200000
1141.2	94.23200000
1141.4	94.12300000
1141.6	94.01300000
1141.8	93.90300000
1142	93.79100000
1142.2	93.61200000
1142.4	93.43300000
1142.6	93.25500000
1142.8	93.07700000
1143	92.89400000
1143.2	92.57000000
1143.4	92.24700000
1143.6	91.92500000
1143.8	91.60500000
1144	91.28600000
1144.2	91.00100000
1144.4	90.71700000
1144.6	90.43300000
1144.8	90.15100000
1145	89.86700000
1145.2	89.50900000
1145.4	89.15100000
1145.6	88.79600000
1145.8	88.44200000
1146	88.08700000
1146.2	87.64600000
1146.4	87.20700000
1146.6	86.77000000
1146.8	86.33600000
1147	85.90300000
1147.2	85.43700000
1147.4	84.97500000
1147.6	84.51500000
1147.8	84.05700000
1148	83.60200000
1148.2	83.20800000
1148.4	82.81500000
1148.6	82.42400000
1148.8	82.03500000
1149	81.64400000
1149.2	81.17300000
1149.4	80.70500000
1149.6	80.24000000
1149.8	79.77700000
1150	79.32100000
1150.2	78.93800000
1150.4	78.55700000
1150.6	78.17800000
1150.8	77.80000000
1151	77.42400000
1151.2	77.03400000
1151.4	76.64600000
1151.6	76.26000000
1151.8	75.87600000
1152	75.49500000
1152.2	75.13400000
1152.4	74.77500000
1152.6	74.41700000
1152.8	74.06100000
1153	73.71000000
1153.2	73.42500000
1153.4	73.14000000
1153.6	72.85700000
1153.8	72.57500000
1154	72.29400000
1154.2	72.10700000
1154.4	71.92000000
1154.6	71.73300000
1154.8	71.54700000
1155	71.36100000
1155.2	71.12500000
1155.4	70.88900000
1155.6	70.65400000
1155.8	70.42000000
1156	70.18800000
1156.2	70.13200000
1156.4	70.07700000
1156.6	70.02100000
1156.8	69.96600000
1157	69.91000000
1157.2	69.79100000
1157.4	69.67100000
1157.6	69.55200000
1157.8	69.43300000
1158	69.31600000
1158.2	69.34800000
1158.4	69.38100000
1158.6	69.41300000
1158.8	69.44600000
1159	69.47900000
1159.2	69.55400000
1159.4	69.62900000
1159.6	69.70400000
1159.8	69.78000000
1160	69.85500000
1160.2	69.95100000
1160.4	70.04600000
1160.6	70.14200000
1160.8	70.23800000
1161	70.33700000
1161.2	70.59200000
1161.4	70.84800000
1161.6	71.10500000
1161.8	71.36200000
1162	71.61900000
1162.2	71.81600000
1162.4	72.01400000
1162.6	72.21200000
1162.8	72.41100000
1163	72.61600000
1163.2	72.96600000
1163.4	73.31900000
1163.6	73.67300000
1163.8	74.02800000
1164	74.38400000
1164.2	74.69800000
1164.4	75.01300000
1164.6	75.33000000
1164.8	75.64800000
1165	75.96800000
1165.2	76.40200000
1165.4	76.83800000
1165.6	77.27700000
1165.8	77.71800000
1166	78.16100000
1166.2	78.60000000
1166.4	79.04100000
1166.6	79.48500000
1166.8	79.93100000
1167	80.38000000
1167.2	80.84700000
1167.4	81.31700000
1167.6	81.78900000
1167.8	82.26400000
1168	82.74200000
1168.2	83.22500000
1168.4	83.71100000
1168.6	84.20000000
1168.8	84.69100000
1169	85.18300000
1169.2	85.62000000
1169.4	86.06000000
1169.6	86.50200000
1169.8	86.94600000
1170	87.39300000
1170.2	87.83600000
1170.4	88.28100000
1170.6	88.72900000
1170.8	89.17900000
1171	89.62800000
1171.2	89.95700000
1171.4	90.28800000
1171.6	90.61900000
1171.8	90.95200000
1172	91.28400000
1172.2	91.55100000
1172.4	91.82000000
1172.6	92.08900000
1172.8	92.35900000
1173	92.62800000
1173.2	92.71800000
1173.4	92.80900000
1173.6	92.90000000
1173.8	92.99100000
1174	93.08000000
1174.2	93.06300000
1174.4	93.04600000
1174.6	93.03000000
1174.8	93.01300000
1175	92.98900000
1175.2	92.79100000
1175.4	92.59200000
1175.6	92.39500000
1175.8	92.19700000
1176	91.99900000
1176.2	91.69600000
1176.4	91.39300000
1176.6	91.09200000
1176.8	90.79200000
1177	90.48600000
1177.2	89.97900000
1177.4	89.47600000
1177.6	88.97500000
1177.8	88.47700000
1178	87.98000000
1178.2	87.42800000
1178.4	86.87900000
1178.6	86.33500000
1178.8	85.79300000
1179	85.25200000
1179.2	84.52000000
1179.4	83.79400000
1179.6	83.07400000
1179.8	82.36100000
1180	81.65400000
1180.2	80.97600000
1180.4	80.30400000
1180.6	79.63700000
1180.8	78.97600000
1181	78.31800000
1181.2	77.48700000
1181.4	76.66400000
1181.6	75.85000000
1181.8	75.04500000
1182	74.25100000
1182.2	73.55500000
1182.4	72.86500000
1182.6	72.18200000
1182.8	71.50500000
1183	70.83400000
1183.2	70.06200000
1183.4	69.29800000
1183.6	68.54200000
1183.8	67.79500000
1184	67.05700000
1184.2	66.37200000
1184.4	65.69400000
1184.6	65.02300000
1184.8	64.35800000
1185	63.70100000
1185.2	63.06700000
1185.4	62.43900000
1185.6	61.81800000
1185.8	61.20300000
1186	60.59200000
1186.2	59.95200000
1186.4	59.31900000
1186.6	58.69300000
1186.8	58.07300000
1187	57.46100000
1187.2	56.98800000
1187.4	56.52000000
1187.6	56.05500000
1187.8	55.59400000
1188	55.13500000
1188.2	54.61500000
1188.4	54.10000000
1188.6	53.59000000
1188.8	53.08400000
1189	52.58400000
1189.2	52.15400000
1189.4	51.72800000
1189.6	51.30500000
1189.8	50.88600000
1190	50.47300000
1190.2	50.17400000
1190.4	49.87800000
1190.6	49.58300000
1190.8	49.29100000
1191	48.99800000
1191.2	48.62800000
1191.4	48.26100000
1191.6	47.89600000
1191.8	47.53500000
1192	47.18000000
1192.2	46.94500000
1192.4	46.71100000
1192.6	46.47800000
1192.8	46.24600000
1193	46.01600000
1193.2	45.84400000
1193.4	45.67200000
1193.6	45.50100000
1193.8	45.33100000
1194	45.15900000
1194.2	44.93200000
1194.4	44.70700000
1194.6	44.48400000
1194.8	44.26100000
1195	44.04300000
1195.2	43.94200000
1195.4	43.84100000
1195.6	43.74000000
1195.8	43.64000000
1196	43.54000000
1196.2	43.49000000
1196.4	43.43900000
1196.6	43.38900000
1196.8	43.33800000
1197	43.28600000
1197.2	43.18300000
1197.4	43.08100000
1197.6	42.97900000
1197.8	42.87700000
1198	42.77700000
1198.2	42.78000000
1198.4	42.78200000
1198.6	42.78400000
1198.8	42.78700000
1199	42.78900000
1199.2	42.86000000
1199.4	42.93000000
1199.6	43.00100000
1199.8	43.07100000
1200	43.14200000
