Wavelength(nm)	%_Transmission 	%_Reflectance
250	0.76742	2.05727
251	0.39204	2.00815
252	0.48611	2.0217
253	0.59766	2.04694
254	0.71037	2.02796
255	0.44625	2.7657
256	0.42745	2.78288
257	0.51948	3.11525
258	0.4911	3.43259
259	0.60456	4.40384
260	0.80913	5.1324
261	0.63001	6.00696
262	0.47363	7.55315
263	0.5988	9.06268
264	0.23056	10.81445
265	0.4302	12.62663
266	0.47046	14.56068
267	0.60818	16.73342
268	0.29694	19.95023
269	0.44758	23.3188
270	0.38646	27.33682
271	0.45645	31.7036
272	0.55568	36.42366
273	0.77906	41.00941
274	0.3569	45.79024
275	0.6584	49.7712
276	0.38011	53.2903
277	0.56627	55.79907
278	1.25697	56.75089
279	0.63658	56.80415
280	0.65125	55.48585
281	0.57212	52.19519
282	0.49129	49.04598
283	0.57568	44.55569
284	0.79913	41.06455
285	0.4252	38.74326
286	0.31112	37.67776
287	0.47981	38.43397
288	0.68344	42.12848
289	0.88308	47.28444
290	1.36087	53.50534
291	1.24654	60.37383
292	1.12446	66.13284
293	0.95596	71.71112
294	1.08406	76.32066
295	1.36561	80.41499
296	1.32192	83.51625
297	1.68557	84.56577
298	2.18133	84.9782
299	2.54348	84.39101
300	3.03521	83.85346
301	3.32031	83.77404
302	3.74902	83.94801
303	4.95385	83.36726
304	5.56917	82.07168
305	7.10888	79.75966
306	9.85107	77.40101
307	11.57576	75.53437
308	12.68631	74.51342
309	13.91802	73.63171
310	16.25063	72.68347
311	17.92904	70.23337
312	21.51597	66.28219
313	25.62203	60.78031
314	30.0771	56.1385
315	33.08623	52.99905
316	33.78391	52.337
317	32.98331	55.34064
318	29.77191	60.07179
319	26.48229	64.56554
320	23.61276	68.97843
321	23.69286	69.59503
322	25.01695	68.41529
323	26.58862	66.81929
324	27.21508	65.62027
325	27.3377	66.35216
326	26.05335	67.48461
327	24.94707	69.0782
328	24.90917	69.34937
329	26.50139	67.73679
330	30.43339	64.26283
331	34.44891	59.41748
332	38.07806	56.0926
333	40.34206	54.06341
334	40.85034	53.68906
335	40.5894	54.23524
336	40.41855	54.61836
337	40.73042	54.69631
338	40.67303	54.65856
339	40.00019	55.22543
340	38.5049	57.26063
341	35.90031	60.44176
342	32.8113	64.06543
343	29.97375	67.17503
344	28.19059	69.02951
345	27.89958	69.37805
346	29.37027	67.86812
347	32.25531	64.91144
348	35.49896	61.28365
349	39.0843	57.4016
350	42.04423	54.1993
351	43.66506	52.79159
352	43.21045	53.18754
353	40.42272	55.58574
354	35.98583	60.45071
355	30.20537	66.63272
356	24.03687	73.37599
357	18.03764	79.79961
358	13.24283	85.05319
359	10.05992	88.42837
360	7.76501	90.72748
361	6.59368	92.23184
362	5.57596	93.58677
363	4.4516	94.83394
364	3.26099	96.10623
365	2.05424	97.32667
366	1.1015	98.14353
367	0.63646	98.69272
368	0.42006	98.99114
369	0.27133	99.01548
370	0.31662	99.01819
371	0.37371	98.76193
372	0.47947	98.75097
373	0.58814	98.56327
374	0.64576	98.33968
375	0.89229	98.17263
376	1.09848	97.82905
377	1.25207	97.58141
378	1.3328	97.52949
379	1.30035	97.53075
380	1.24869	97.67039
381	1.16508	97.83465
382	0.97884	98.05953
383	0.84421	98.14065
384	0.83022	98.16757
385	0.77708	98.21135
386	0.8166	98.15053
387	0.80604	98.07355
388	0.80297	98.01601
389	0.73247	97.97144
390	0.72099	97.97163
391	0.65668	98.01105
392	0.63929	98.0666
393	0.61049	98.20453
394	0.57901	98.29064
395	0.55633	98.32524
396	0.55984	98.34185
397	0.52936	98.29248
398	0.53205	98.26358
399	0.50638	98.28986
400	0.43549	98.36311
401	0.44811	98.4906
402	0.36727	98.67031
403	0.32729	98.78836
404	0.32303	98.87323
405	0.30112	98.90812
406	0.32566	98.8909
407	0.34138	98.75641
408	0.36267	98.67826
409	0.38732	98.57322
410	0.38399	98.57362
411	0.40621	98.54621
412	0.39532	98.59157
413	0.38748	98.72265
414	0.36236	98.74529
415	0.37978	98.76081
416	0.42222	98.72964
417	0.40525	98.61002
418	0.44252	98.55494
419	0.47115	98.47231
420	0.47765	98.48777
421	0.43261	98.58182
422	0.38859	98.69588
423	0.33995	98.84716
424	0.27536	99.04047
425	0.23054	99.21762
426	0.19138	99.28149
427	0.17075	99.31629
428	0.15838	99.26131
429	0.1858	99.16578
430	0.19225	99.05284
431	0.2227	98.94811
432	0.24048	98.91236
433	0.27872	98.86538
434	0.29051	98.85379
435	0.29783	98.90554
436	0.28103	98.94183
437	0.25589	99.03169
438	0.23364	99.04468
439	0.21578	99.04719
440	0.21533	99.02846
441	0.21092	98.98598
442	0.23665	98.96233
443	0.25888	98.91078
444	0.31122	98.86801
445	0.34512	98.85613
446	0.36971	98.9002
447	0.34931	98.97742
448	0.31806	99.09261
449	0.28094	99.17415
450	0.21928	99.30159
451	0.16638	99.43477
452	0.12475	99.53484
453	0.07193	99.5956
454	0.05293	99.64161
455	0.04779	99.66841
456	0.02711	99.70669
457	0.0361	99.70836
458	0.02772	99.69079
459	0.02922	99.70133
460	0.03099	99.70291
461	0.03653	99.71695
462	0.04226	99.70763
463	0.04873	99.6809
464	0.07126	99.67249
465	0.10548	99.64711
466	0.13129	99.61622
467	0.16759	99.5718
468	0.22287	99.51463
469	0.26701	99.48787
470	0.28878	99.46
471	0.32242	99.4411
472	0.33644	99.41532
473	0.33768	99.4037
474	0.33598	99.42056
475	0.30481	99.44896
476	0.28002	99.47157
477	0.25153	99.48903
478	0.21825	99.53259
479	0.18135	99.5725
480	0.1664	99.60175
481	0.15038	99.60451
482	0.14938	99.58117
483	0.15175	99.58289
484	0.18327	99.55284
485	0.21305	99.51851
486	0.27541	99.43963
487	0.35213	99.354
488	0.47075	99.2456
489	0.64793	99.06267
490	0.94175	98.7611
491	1.40754	98.28149
492	2.19725	97.48504
493	3.47118	96.22522
494	5.2955	94.35658
495	7.84045	91.76919
496	11.04046	88.54863
497	14.73603	84.83924
498	18.78088	80.79114
499	22.95807	76.62446
500	27.16207	72.43143
501	31.28701	68.3317
502	35.11427	64.57385
503	38.55316	61.17683
504	41.46897	58.28505
505	43.82041	55.9567
506	45.70805	54.09432
507	47.34939	52.46512
508	49.0512	50.76018
509	51.05618	48.76968
510	53.44042	46.37556
511	56.32409	43.49619
512	59.64682	40.21651
513	63.25839	36.6062
514	67.0858	32.77797
515	71.04126	28.8278
516	74.98113	24.89837
517	78.83138	21.05412
518	82.4035	17.50286
519	85.66868	14.215
520	90.56649	8.31709
521	90.96645	7.9109
522	92.86819	7.00619
523	94.27152	5.59505
524	95.22702	4.63698
525	95.85295	4.0248
526	96.23235	3.65492
527	96.48498	3.4017
528	96.69913	3.1842
529	96.89915	2.9951
530	97.08862	2.80118
531	97.28395	2.60962
532	97.45934	2.4291
533	97.58673	2.27982
534	97.71906	2.15462
535	97.81652	2.06805
536	97.90663	1.9852
537	97.96788	1.9153
538	98.04124	1.84398
539	98.12181	1.76679
540	98.18623	1.69531
541	98.26083	1.62807
542	98.31152	1.58433
543	98.33313	1.55611
544	98.33672	1.5666
545	98.29502	1.59164
546	98.249	1.64352
547	98.1613	1.71287
548	98.07763	1.79448
549	98.02302	1.86629
550	97.95752	1.91589
551	97.9325	1.9504
552	97.92288	1.95104
553	97.9422	1.93121
554	98.00082	1.8897
555	98.05739	1.82635
556	98.12578	1.75192
557	98.19886	1.68106
558	98.27	1.61767
559	98.32129	1.56604
560	98.35078	1.53042
561	98.37712	1.50815
562	98.37675	1.49378
563	98.37605	1.50612
564	98.35921	1.51929
565	98.34104	1.54832
566	98.30045	1.56282
567	98.30875	1.5803
568	98.29565	1.57941
569	98.27653	1.59125
570	98.30405	1.58043
571	98.30292	1.57567
572	98.30417	1.56837
573	98.307	1.57413
574	98.3038	1.57432
575	98.28846	1.58725
576	98.27957	1.61097
577	98.24086	1.64433
578	98.19709	1.68612
579	98.14564	1.7281
580	98.08186	1.77967
581	98.04221	1.83534
582	97.98281	1.88926
583	97.93692	1.93879
584	97.89541	1.97899
585	97.86304	2.00509
586	97.85246	2.02327
587	97.8256	2.02705
588	97.84632	2.01215
589	97.86165	2.00183
590	97.88717	1.9744
591	97.91446	1.94191
592	97.9557	1.90646
593	97.98229	1.87531
594	98.02551	1.83391
595	98.06673	1.79826
596	98.09253	1.76446
597	98.12837	1.73214
598	98.15445	1.69364
599	98.1855	1.66687
600	98.21088	1.64392
601	98.24176	1.61645
602	98.26547	1.58743
603	98.30206	1.55902
604	98.31935	1.53929
605	98.36026	1.50814
606	98.38623	1.47587
607	98.41789	1.44861
608	98.45807	1.41075
609	98.49475	1.39218
610	98.5174	1.3538
611	98.54628	1.32451
612	98.58596	1.29307
613	98.61593	1.2664
614	98.64001	1.23284
615	98.66213	1.21521
616	98.67295	1.20419
617	98.68969	1.18948
618	98.70963	1.16726
619	98.7107	1.1601
620	98.72816	1.15469
621	98.74153	1.14787
622	98.74187	1.14674
623	98.75243	1.14129
624	98.7491	1.14051
625	98.75565	1.13668
626	98.74185	1.14264
627	98.74821	1.13958
628	98.7399	1.14429
629	98.7467	1.14909
630	98.72659	1.16038
631	98.72413	1.17046
632	98.70212	1.18381
633	98.69712	1.19583
634	98.67949	1.21679
635	98.67414	1.22746
636	98.64327	1.24814
637	98.63366	1.26272
638	98.60596	1.28043
639	98.59093	1.29568
640	98.5854	1.3109
641	98.57236	1.32428
642	98.55792	1.33802
643	98.54966	1.35575
644	98.53867	1.35425
645	98.53945	1.36098
646	98.53756	1.37013
647	98.53792	1.3603
648	98.5336	1.36155
649	98.54178	1.36648
650	98.55054	1.3594
651	98.55359	1.3493
652	98.57438	1.34709
653	98.55663	1.34318
654	98.57787	1.344
655	98.58216	1.34258
656	98.58542	1.33966
657	98.588	1.34251
658	98.58246	1.3373
659	98.58358	1.3395
660	98.57386	1.34147
661	98.5866	1.33111
662	98.58554	1.33624
663	98.58304	1.33966
664	98.60095	1.32861
665	98.59543	1.32469
666	98.60406	1.32811
667	98.61304	1.31278
668	98.62146	1.31178
669	98.63892	1.29419
670	98.65894	1.28761
671	98.65967	1.26862
672	98.67438	1.26442
673	98.67149	1.25418
674	98.70241	1.23408
675	98.7176	1.22641
676	98.72543	1.21789
677	98.72971	1.19859
678	98.74161	1.19435
679	98.75042	1.18563
680	98.76141	1.18959
681	98.7631	1.17979
682	98.76077	1.17743
683	98.76287	1.17865
684	98.75746	1.18138
685	98.77821	1.18876
686	98.74982	1.1971
687	98.73573	1.20317
688	98.75549	1.20687
689	98.74011	1.20995
690	98.72608	1.22262
691	98.72382	1.23185
692	98.73114	1.23177
693	98.71889	1.23089
694	98.72739	1.22652
695	98.71433	1.23096
696	98.71542	1.23594
697	98.73843	1.22727
698	98.73719	1.22075
699	98.75695	1.21077
700	98.74155	1.20578
701	98.74986	1.2049
702	98.76632	1.20038
703	98.76765	1.20469
704	98.76001	1.20055
705	98.76157	1.18842
706	98.77702	1.18785
707	98.75624	1.19156
708	98.75865	1.1913
709	98.75052	1.19527
710	98.75751	1.18991
711	98.73549	1.19697
712	98.73295	1.21708
713	98.73815	1.22921
714	98.72376	1.23051
715	98.70346	1.25026
716	98.69973	1.23963
717	98.69588	1.2516
718	98.68823	1.2635
719	98.687	1.26657
720	98.70695	1.28989
721	98.71224	1.28367
722	98.70773	1.28382
723	98.71838	1.27448
724	98.72473	1.27125
725	98.72157	1.26076
726	98.74794	1.25042
727	98.76759	1.22781
728	98.784	1.21279
729	98.78082	1.20415
730	98.8165	1.17185
731	98.82891	1.16875
732	98.85375	1.1353
733	98.86718	1.12426
734	98.88596	1.1105
735	98.89488	1.08968
736	98.9271	1.07165
737	98.93001	1.05576
738	98.95995	1.04075
739	98.96691	1.03211
740	98.99075	1.02395
741	98.98748	1.02581
742	98.97639	1.01738
743	98.97996	1.02052
744	98.99768	1.0134
745	98.98659	1.01478
746	98.98876	1.01813
747	98.96949	1.02172
748	98.96077	1.02993
749	98.94442	1.0461
750	98.94682	1.04831
751	98.9581	1.05671
752	98.93694	1.06419
753	98.93335	1.07677
754	98.91137	1.08116
755	98.91847	1.09934
756	98.91209	1.10138
757	98.90165	1.10247
758	98.88977	1.10803
759	98.89889	1.11439
760	98.87719	1.12147
761	98.87001	1.11581
762	98.85252	1.1295
763	98.87535	1.13698
764	98.88617	1.12764
765	98.85943	1.134
766	98.8659	1.13588
767	98.87042	1.13906
768	98.84979	1.14142
769	98.86197	1.15172
770	98.85304	1.14036
771	98.84669	1.1535
772	98.8434	1.14792
773	98.84169	1.15067
774	98.84251	1.16743
775	98.82912	1.16932
776	98.81422	1.17164
777	98.82623	1.17926
778	98.81332	1.18664
779	98.80323	1.18088
780	98.81274	1.19403
781	98.80573	1.19229
782	98.80542	1.19692
783	98.78773	1.20521
784	98.78631	1.20724
785	98.78416	1.21469
786	98.77366	1.22083
787	98.76501	1.22722
788	98.76884	1.22606
789	98.75777	1.23796
790	98.7578	1.2457
791	98.75215	1.25144
792	98.75142	1.25701
793	98.72482	1.26363
794	98.71445	1.28333
795	98.70815	1.29407
796	98.69541	1.29982
797	98.68491	1.31151
798	98.67087	1.33326
799	98.64439	1.34492
800	98.63091	1.36194
801	98.6029	1.37896
802	98.60102	1.41109
803	98.57797	1.42613
804	98.55045	1.45787
805	98.52332	1.47527
806	98.48492	1.50449
807	98.46829	1.52664
808	98.44463	1.56582
809	98.41066	1.59302
810	98.38715	1.63001
811	98.33043	1.66971
812	98.2932	1.71179
813	98.23156	1.77042
814	98.18334	1.81797
815	98.1144	1.88333
816	98.05324	1.95424
817	97.97333	2.03727
818	97.88377	2.1224
819	97.77963	2.22653
820	97.64162	2.34933
821	97.52681	2.47763
822	97.36948	2.6228
823	97.2021	2.79724
824	97.01394	2.98837
825	96.80302	3.2005
826	96.5806	3.4372
827	96.29781	3.68997
828	96.01842	3.97414
829	95.69964	4.29104
830	95.3425	4.64523
831	94.96041	5.01669
832	94.57339	5.42635
833	94.11976	5.86615
834	93.65714	6.3233
835	93.16141	6.82882
836	92.59922	7.37497
837	92.0489	7.94066
838	91.46231	8.52575
839	90.8263	9.15209
840	90.15333	9.8145
841	89.49105	10.47305
842	88.75497	11.20157
843	88.01331	11.94097
844	87.28963	12.66581
845	86.5126	13.45302
846	85.70232	14.25461
847	84.89028	15.05262
848	84.0364	15.90235
849	83.16529	16.78443
850	82.31524	17.62502
851	81.42516	18.52353
852	80.50148	19.44579
853	79.59578	20.34657
854	78.65738	21.2902
855	77.6771	22.27615
856	76.70586	23.24784
857	75.70323	24.23089
858	74.69829	25.24981
859	73.63331	26.30526
860	72.59572	27.33468
861	71.48427	28.45812
862	70.35862	29.58326
863	69.2476	30.68252
864	68.08031	31.86093
865	66.87434	33.05619
866	65.6866	34.2483
867	64.42604	35.49595
868	63.13114	36.80925
869	61.87043	38.05275
870	60.56812	39.35455
871	59.20502	40.71752
872	57.87984	42.03033
873	56.49728	43.41362
874	55.0874	44.83328
875	53.7143	46.2013
876	52.33204	47.6004
877	50.92148	48.98855
878	49.50179	50.40725
879	48.142	51.75267
880	46.71557	53.18113
881	45.3468	54.55826
882	44.02355	55.87063
883	42.6901	57.2061
884	41.36926	58.53373
885	40.09885	59.77534
886	38.85083	61.04636
887	37.60237	62.28731
888	36.44938	63.42845
889	35.31156	64.57965
890	34.18823	65.70601
891	33.15335	66.74309
892	32.11339	67.77123
893	31.11395	68.77584
894	30.18375	69.70331
895	29.29273	70.57859
896	28.4307	71.45403
897	27.61488	72.249
898	26.85611	73.01379
899	26.10631	73.77149
900	25.41646	74.45841
901	24.77471	75.10588
902	24.15842	75.72703
903	23.57548	76.30808
904	23.03897	76.83308
905	22.52811	77.36049
906	22.04595	77.84188
907	21.62	78.26646
908	21.2078	78.68194
909	20.82509	79.0638
910	20.48347	79.3948
911	20.1604	79.71596
912	19.86106	80.01855
913	19.59897	80.27493
914	19.36041	80.5171
915	19.14312	80.72945
916	18.9537	80.92807
917	18.78964	81.08757
918	18.64225	81.23407
919	18.52229	81.36086
920	18.42579	81.45556
921	18.34999	81.53001
922	18.29291	81.57862
923	18.25974	81.62094
924	18.24421	81.62907
925	18.2523	81.62574
926	18.27573	81.60057
927	18.32292	81.55234
928	18.39224	81.48644
929	18.47118	81.41202
930	18.57695	81.30652
931	18.70277	81.17033
932	18.84291	81.04713
933	19.00094	80.88105
934	19.18501	80.69703
935	19.38338	80.49653
936	19.59764	80.28016
937	19.84284	80.0476
938	20.10299	79.79188
939	20.36691	79.50674
940	20.65998	79.21509
941	20.96981	78.90597
942	21.29783	78.59551
943	21.64577	78.22894
944	22.02302	77.85169
945	22.39448	77.48612
946	22.79653	77.09029
947	23.22057	76.66412
948	23.64087	76.24081
949	24.09806	75.77804
950	24.57645	75.30762
951	25.04378	74.8462
952	25.53697	74.34599
953	26.04799	73.83635
954	26.57398	73.30311
955	27.09668	72.78584
956	27.65822	72.22986
957	28.21653	71.679
958	28.76911	71.11796
959	29.3489	70.54688
960	29.92815	69.95335
961	30.50193	69.37949
962	31.11287	68.79797
963	31.71725	68.1785
964	32.30181	67.60336
965	32.90497	67.00685
966	33.52734	66.38331
967	34.11409	65.80811
968	34.71674	65.18273
969	35.33066	64.58111
970	35.91145	64.00671
971	36.50956	63.41676
972	37.09209	62.819
973	37.67709	62.24686
974	38.24742	61.69133
975	38.83484	61.10199
976	39.38384	60.54826
977	39.92588	60.00775
978	40.47912	59.46238
979	41.01586	58.93027
980	41.53911	58.40603
981	42.0673	57.87668
982	42.58186	57.36244
983	43.07481	56.86758
984	43.57799	56.37292
985	44.08353	55.87812
986	44.55157	55.39604
987	45.04214	54.89627
988	45.54407	54.42405
989	46.00245	53.95432
990	46.47927	53.47862
991	46.95683	53.00264
992	47.42402	52.53418
993	47.90143	52.05034
994	48.40649	51.55887
995	48.88849	51.08548
996	49.36935	50.58363
997	49.87842	50.08108
998	50.38723	49.57399
999	50.90828	49.06738
1000	51.4466	48.51344
1001	52.00707	47.9619
1002	52.54694	47.42401
1003	53.12788	46.85125
1004	53.72185	46.25539
1005	54.29634	45.66716
1006	54.93633	45.0432
1007	55.58375	44.39323
1008	56.20533	43.77763
1009	56.87507	43.10288
1010	57.56898	42.42254
1011	58.23519	41.74156
1012	58.93802	41.0456
1013	59.68937	40.30786
1014	60.41194	39.59224
1015	61.13712	38.85831
1016	61.88822	38.10928
1017	62.6307	37.36868
1018	63.38333	36.61816
1019	64.16252	35.84199
1020	64.9341	35.07317
1021	65.66011	34.33693
1022	66.41553	33.58229
1023	67.18619	32.83503
1024	67.89126	32.12364
1025	68.60511	31.40026
1026	69.31699	30.6984
1027	69.95983	30.05414
1028	70.6067	29.40953
1029	71.21938	28.80288
1030	71.77005	28.24913
1031	72.29467	27.72527
1032	72.77648	27.23376
1033	73.19908	26.8229
1034	73.55174	26.45728
1035	73.86964	26.14747
1036	74.11141	25.90154
1037	74.29399	25.72225
1038	74.405	25.6106
1039	74.44891	25.5657
1040	74.40181	25.5923
1041	74.32973	25.69074
1042	74.13963	25.86148
1043	73.91055	26.09264
1044	73.58122	26.40396
1045	73.19652	26.78958
1046	72.78413	27.21122
1047	72.28622	27.71032
1048	71.73016	28.25725
1049	71.14075	28.83798
1050	69.82178	30.03062
1051	69.13394	30.7057
1052	68.46876	31.38948
1053	67.74408	32.09373
1054	66.9938	32.84515
1055	66.2495	33.58939
1056	65.47252	34.36028
1057	64.68498	35.14789
1058	63.90444	35.9399
1059	63.13209	36.6915
1060	62.36497	37.47496
1061	61.57102	38.25419
1062	60.83771	38.9828
1063	60.0683	39.75407
1064	59.33082	40.49873
1065	58.63699	41.19004
1066	57.93797	41.88804
1067	57.2511	42.5654
1068	56.62212	43.20995
1069	55.99056	43.82745
1070	55.37373	44.44744
1071	54.8199	45.01061
1072	54.26237	45.5511
1073	53.7429	46.07391
1074	53.253	46.5675
1075	52.78368	47.0369
1076	52.32734	47.49419
1077	51.91244	47.91843
1078	51.52057	48.31284
1079	51.1403	48.68282
1080	50.78394	49.03542
1081	50.47407	49.35342
1082	50.14346	49.66882
1083	49.86394	49.96927
1084	49.60391	50.23928
1085	49.34991	50.48572
1086	49.11724	50.73194
1087	48.90902	50.93884
1088	48.70447	51.13048
1089	48.50536	51.32129
1090	48.34451	51.471
1091	48.18957	51.64175
1092	48.0314	51.78664
1093	47.89854	51.91711
1094	47.78722	52.0288
1095	47.64874	52.17145
1096	47.57203	52.25214
1097	47.45368	52.39019
1098	47.37657	52.43528
1099	47.28445	52.55337
1100	47.21507	52.60753
1101	47.14024	52.72021
1102	47.06986	52.7482
1103	47.0001	52.84347
1104	46.92529	52.89871
1105	46.88681	52.95849
1106	46.80996	53.02231
1107	46.77731	53.07074
1108	46.71182	53.16619
1109	46.61104	53.17859
1110	46.61366	53.2501
1111	46.54951	53.34125
1112	46.4769	53.33208
1113	46.37864	53.41405
1114	46.38746	53.50655
1115	46.31323	53.55275
1116	46.22803	53.5863
1117	46.18297	53.62376
1118	46.14011	53.73743
1119	46.06624	53.79277
1120	46.00762	53.84637
1121	45.93513	53.93113
1122	45.866	53.96749
1123	45.79446	54.04347
1124	45.74878	54.10623
1125	45.66363	54.17633
1126	45.6131	54.23498
1127	45.52958	54.31354
1128	45.46176	54.36543
1129	45.43662	54.43568
1130	45.33797	54.48672
1131	45.28507	54.5285
1132	45.25947	54.61481
1133	45.17679	54.67497
1134	45.15796	54.71201
1135	45.09267	54.7529
1136	45.06224	54.80072
1137	45.00568	54.83461
1138	45.00002	54.87139
1139	44.95864	54.88762
1140	44.94294	54.90156
1141	44.90921	54.9069
1142	44.93318	54.95068
1143	44.93819	54.91812
1144	44.94762	54.8908
1145	44.95338	54.89811
1146	45.00574	54.86113
1147	45.05829	54.79688
1148	45.07889	54.77374
1149	45.15402	54.70556
1150	45.236	54.6083
1151	45.29291	54.57132
1152	45.43098	54.45795
1153	45.53286	54.34494
1154	45.62818	54.23656
1155	45.76301	54.09035
1156	45.90851	53.9415
1157	46.07912	53.78683
1158	46.26801	53.61614
1159	46.41924	53.41484
1160	46.63651	53.22173
1161	46.86419	53.01165
1162	47.12133	52.81322
1163	47.31138	52.49315
1164	47.5969	52.26842
1165	47.88861	51.98874
1166	48.18401	51.70851
1167	48.47929	51.37901
1168	48.81555	51.0643
1169	49.14536	50.72739
1170	49.51605	50.36609
1171	49.90107	49.99519
1172	50.27201	49.60806
1173	50.68197	49.20632
1174	51.1105	48.76978
1175	51.55611	48.33689
1176	52.01752	47.8907
1177	52.49538	47.40833
1178	52.97973	46.91611
1179	53.50891	46.4356
1180	54.00565	45.86978
1181	54.53176	45.3492
1182	55.09792	44.81191
1183	55.68515	44.25645
1184	56.28875	43.63818
1185	56.86514	43.06104
1186	57.48316	42.44724
1187	58.13258	41.79933
1188	58.76119	41.19054
1189	59.4139	40.52045
1190	60.08598	39.83311
1191	60.76821	39.18095
1192	61.46391	38.48272
1193	62.16482	37.78383
1194	62.88755	37.07662
1195	63.61171	36.38191
1196	64.32215	35.60476
1197	65.09495	34.89116
1198	65.79617	34.17234
1199	66.53948	33.44243
1200	67.21084	32.80098
1201	67.92434	32.06406
1202	68.68633	31.30895
1203	69.44349	30.55983
1204	70.16115	29.83748
1205	70.87898	29.11504
1206	71.64896	28.3812
1207	72.33456	27.69187
1208	73.00815	26.98076
1209	73.73334	26.28874
1210	74.38724	25.65488
1211	75.03492	25.00523
1212	75.64295	24.36364
1213	76.21614	23.78122
1214	76.79673	23.21955
1215	77.35728	22.66343
1216	77.84718	22.16287
1217	78.32396	21.70163
1218	78.79612	21.26877
1219	79.15968	20.8626
1220	79.58412	20.50905
1221	79.85066	20.18437
1222	80.13939	19.90896
1223	80.36333	19.68103
1224	80.51204	19.50184
1225	80.64134	19.35159
1226	80.78629	19.24041
1227	80.86745	19.20981
1228	80.82511	19.20337
1229	80.80915	19.25423
1230	80.65962	19.33242
1231	80.55983	19.46188
1232	80.38283	19.63552
1233	80.16577	19.83849
1234	79.90001	20.10262
1235	79.52324	20.39053
1236	79.3521	20.71762
1237	78.93216	21.06611
1238	78.53254	21.45243
1239	78.12991	21.87489
1240	77.66011	22.30886
1241	77.1923	22.77713
1242	76.69837	23.23863
1243	76.17041	23.69888
1244	75.65551	24.27254
1245	75.14404	24.7833
1246	74.59532	25.3423
1247	74.03408	25.90314
1248	73.48204	26.44202
1249	72.91389	26.99545
1250	72.35118	27.56435
1251	71.83704	28.13169
1252	71.25735	28.6956
1253	70.69731	29.25307
1254	70.14024	29.78034
1255	69.61731	30.32326
1256	69.07137	30.87017
1257	68.53824	31.37373
1258	68.04739	31.90153
1259	67.52678	32.41776
1260	67.05191	32.92557
1261	66.58404	33.39293
1262	66.09896	33.85482
1263	65.58672	34.32604
1264	65.2974	34.77551
1265	64.7814	35.1821
1266	64.35276	35.58247
1267	63.98091	35.98045
1268	63.61151	36.38257
1269	63.23311	36.74656
1270	62.88397	37.07093
1271	62.5529	37.4216
1272	62.2246	37.74927
1273	61.91762	38.0389
1274	61.6333	38.32989
1275	61.3632	38.61409
1276	61.11117	38.87357
1277	60.85739	39.11018
1278	60.59932	39.32415
1279	60.39301	39.5271
1280	60.21733	39.74703
1281	60.02411	39.93563
1282	59.84624	40.15761
1283	59.70859	40.27132
1284	59.55861	40.43092
1285	59.41372	40.54805
1286	59.30437	40.6597
1287	59.19081	40.75798
1288	59.09744	40.86078
1289	59.01054	40.94008
1290	58.95202	41.01429
1291	58.88837	41.07152
1292	58.84275	41.11377
1293	58.8193	41.15141
1294	58.78952	41.17051
1295	58.77127	41.18508
1296	58.77874	41.18514
1297	58.78478	41.17409
1298	58.80628	41.15575
1299	58.82912	41.13321
1300	58.87151	41.08971
1301	58.92006	41.03439
1302	58.97143	40.97686
1303	59.03926	40.91767
1304	59.11608	40.84298
1305	59.19657	40.75709
1306	59.29458	40.66693
1307	59.38907	40.56786
1308	59.50173	40.45651
1309	59.61434	40.34342
1310	59.74492	40.22305
1311	59.86502	40.08349
1312	60.00849	39.95881
1313	60.14946	39.79096
1314	60.2952	39.66765
1315	60.45411	39.50553
1316	60.62247	39.34048
1317	60.79608	39.17328
1318	60.95905	39.00166
1319	61.14084	38.8258
1320	61.33189	38.63103
1321	61.50794	38.45208
1322	61.70789	38.25238
1323	61.90598	38.05086
1324	62.1055	37.85375
1325	62.31598	37.64518
1326	62.53274	37.43569
1327	62.73487	37.22255
1328	62.95267	37.00216
1329	63.18083	36.77379
1330	63.39222	36.55824
1331	63.61428	36.33247
1332	63.83839	36.09455
1333	64.07035	35.86877
1334	64.30308	35.63324
1335	64.54149	35.39481
1336	64.77156	35.16045
1337	65.00193	34.92583
1338	65.24521	34.68729
1339	65.4875	34.44234
1340	65.70008	34.19804
1341	65.95144	33.967
1342	66.19769	33.72259
1343	66.41855	33.47866
1344	66.66553	33.24829
1345	66.8966	33.00553
1346	67.12959	32.76967
1347	67.35985	32.53003
1348	67.60865	32.28801
1349	67.82883	32.0569
1350	68.04565	31.83103
1351	68.27889	31.59989
1352	68.49792	31.37648
1353	68.72848	31.14632
1354	68.94348	30.91619
1355	69.17053	30.69548
1356	69.37193	30.48053
1357	69.59623	30.26698
1358	69.78903	30.04855
1359	69.98821	29.8523
1360	70.18776	29.64634
1361	70.39854	29.43451
1362	70.57626	29.24274
1363	70.76486	29.04696
1364	70.94848	28.85973
1365	71.10548	28.67519
1366	71.2746	28.499
1367	71.42002	28.32229
1368	71.52775	28.15529
1369	71.6397	27.99378
1370	71.7487	27.82643
1371	71.82574	27.68082
1372	71.89539	27.52681
1373	71.92649	27.37797
1374	71.9496	27.24143
1375	71.96804	27.11794
1376	71.96379	26.99169
1377	71.94457	26.88255
1378	71.91504	26.77999
1379	71.9125	26.68189
1380	71.8931	26.59068
1381	71.8949	26.52132
1382	71.87288	26.45322
1383	71.89297	26.40997
1384	71.89426	26.37627
1385	71.90887	26.36534
1386	71.92741	26.36676
1387	71.93576	26.38382
1388	71.95403	26.41267
1389	71.96872	26.45697
1390	71.97104	26.5137
1391	71.96288	26.57762
1392	71.931	26.65563
1393	71.91521	26.74876
1394	71.87889	26.85764
1395	71.83562	26.97521
1396	71.78702	27.10897
1397	71.68705	27.24196
1398	71.57363	27.40054
1399	71.48936	27.56769
1400	71.39146	27.74424
1401	71.2309	27.92578
1402	71.09404	28.1172
1403	70.94025	28.32939
1404	70.75792	28.54705
1405	70.58537	28.78972
1406	70.37478	29.01237
1407	70.16402	29.26063
1408	69.93821	29.54649
1409	69.66492	29.79742
1410	69.44288	30.08723
1411	69.17391	30.38397
1412	68.91343	30.67783
1413	68.60755	30.97169
1414	68.28434	31.29938
1415	68.02601	31.62215
1416	67.64689	31.95536
1417	67.35387	32.30756
1418	67.00735	32.6545
1419	66.68325	33.0062
1420	66.33208	33.38397
1421	65.95885	33.74559
1422	65.58819	34.11954
1423	65.164	34.5167
1424	64.77934	34.92938
1425	64.4534	35.30056
1426	64.06042	35.69473
1427	63.67079	36.10319
1428	63.27714	36.49443
1429	62.86324	36.91232
1430	62.45481	37.33659
1431	62.0509	37.73825
1432	61.64455	38.15186
1433	61.22333	38.56163
1434	60.81142	39.00957
1435	60.39152	39.41769
1436	59.97312	39.85603
1437	59.54527	40.28016
1438	59.13753	40.69413
1439	58.71151	41.11593
1440	58.29787	41.54002
1441	57.8916	41.94468
1442	57.47664	42.37227
1443	57.04475	42.79965
1444	56.65359	43.20345
1445	56.24017	43.61112
1446	55.85245	44.04035
1447	55.44457	44.42023
1448	55.03331	44.83035
1449	54.61665	45.23568
1450	54.24785	45.61855
1451	53.85553	46.00486
1452	53.47186	46.40279
1453	53.09688	46.78067
1454	52.72209	47.15196
1455	52.34302	47.53395
1456	51.98779	47.91295
1457	51.63478	48.24765
1458	51.23347	48.58181
1459	50.92443	48.96882
1460	50.58774	49.28169
1461	50.25588	49.63624
1462	49.90709	49.96438
1463	49.60883	50.28235
1464	49.22512	50.57435
1465	48.96101	50.92028
1466	48.66511	51.26651
1467	48.3521	51.52191
1468	48.06137	51.82997
1469	47.7787	52.09953
1470	47.49656	52.38754
1471	47.21895	52.67008
1472	46.9453	52.93712
1473	46.6879	53.19468
1474	46.42193	53.45657
1475	46.14958	53.67033
1476	45.96487	53.92472
1477	45.7054	54.19726
1478	45.47539	54.40989
1479	45.25448	54.63118
1480	45.03254	54.84692
1481	44.8206	55.06178
1482	44.62136	55.25685
1483	44.41935	55.44183
1484	44.22747	55.63822
1485	44.04764	55.81806
1486	43.87854	56.00099
1487	43.71409	56.19326
1488	43.53763	56.34279
1489	43.38495	56.49284
1490	43.21727	56.63315
1491	43.08647	56.78425
1492	42.95136	56.91701
1493	42.83181	57.06624
1494	42.69923	57.20318
1495	42.57697	57.31295
1496	42.45833	57.39565
1497	42.33882	57.50272
1498	42.25366	57.61354
1499	42.17357	57.71353
1500	42.07431	57.82076
1501	42.00072	57.89262
1502	41.89916	57.94131
1503	41.83521	58.01619
1504	41.77938	58.08763
1505	41.74256	58.15807
1506	41.67694	58.21954
1507	41.6275	58.24282
1508	41.58153	58.26493
1509	41.55137	58.30546
1510	41.53541	58.34722
1511	41.53092	58.39149
1512	41.49025	58.40161
1513	41.4473	58.35355
1514	41.48665	58.39031
1515	41.47663	58.38769
1516	41.49819	58.38821
1517	41.50566	58.36984
1518	41.51495	58.35317
1519	41.54513	58.38471
1520	41.55799	58.28388
1521	41.61216	58.22477
1522	41.64742	58.21867
1523	41.69888	58.18024
1524	41.75002	58.16424
1525	41.81837	58.08039
1526	41.837	57.97464
1527	41.94997	57.93275
1528	42.00875	57.85367
1529	42.09245	57.80964
1530	42.15469	57.69511
1531	42.26893	57.60211
1532	42.35488	57.51402
1533	42.455	57.42867
1534	42.56671	57.32109
1535	42.67776	57.19847
1536	42.78443	57.07409
1537	42.90671	56.94689
1538	43.05067	56.87408
1539	43.17009	56.71232
1540	43.30791	56.57005
1541	43.45555	56.44739
1542	43.59213	56.27945
1543	43.7523	56.13072
1544	43.87837	55.94552
1545	44.0924	55.81493
1546	44.2477	55.65291
1547	44.37987	55.4235
1548	44.58269	55.30533
1549	44.76933	55.11523
1550	44.99464	54.92123
1551	45.14941	54.73173
1552	45.35086	54.54171
1553	45.55367	54.31247
1554	45.72883	54.16099
1555	46.00261	53.92433
1556	46.18966	53.70042
1557	46.40346	53.47887
1558	46.63225	53.26062
1559	46.8629	53.03283
1560	47.09176	52.7924
1561	47.32377	52.58118
1562	47.58185	52.30775
1563	47.83366	52.06063
1564	48.0601	51.8109
1565	48.34854	51.56941
1566	48.5969	51.30778
1567	48.86412	51.0328
1568	49.11561	50.77447
1569	49.42866	50.50748
1570	49.68971	50.23438
1571	49.95524	49.91524
1572	50.24001	49.64977
1573	50.54947	49.39949
1574	50.833	49.08674
1575	51.13848	48.75783
1576	51.42425	48.47427
1577	51.72703	48.18271
1578	52.04018	47.89385
1579	52.36025	47.55769
1580	52.65553	47.25757
1581	52.98153	46.9486
1582	53.28798	46.6175
1583	53.60233	46.29525
1584	53.93541	45.98999
1585	54.25749	45.65592
1586	54.5743	45.32433
1587	54.95438	44.99838
1588	55.26492	44.67593
1589	55.56334	44.32641
1590	55.92974	43.99264
1591	56.29634	43.65437
1592	56.58532	43.32786
1593	56.94743	42.97663
1594	57.33056	42.62539
1595	57.6571	42.29972
1596	57.96386	41.9494
1597	58.33027	41.59088
1598	58.73363	41.25205
1599	59.03277	40.92989
1600	59.38257	40.55998
1601	59.71324	40.19333
1602	60.09017	39.89028
1603	60.46835	39.52616
1604	60.76295	39.13132
1605	61.12027	38.82416
1606	61.42724	38.46696
1607	61.89149	38.12024
1608	62.16299	37.80537
1609	62.50266	37.43976
1610	62.85994	37.10409
1611	63.17475	36.76897
1612	63.55448	36.43859
1613	63.871	36.07958
1614	64.20883	35.75664
1615	64.52048	35.42452
1616	64.87596	35.11848
1617	65.19663	34.77898
1618	65.48152	34.44545
1619	65.84509	34.15572
1620	66.14479	33.82145
1621	66.43391	33.50794
1622	66.75658	33.20687
1623	67.09293	32.92691
1624	67.3464	32.61169
1625	67.62607	32.30757
1626	67.95528	32.02863
1627	68.24553	31.75395
1628	68.4938	31.469
1629	68.76736	31.20308
1630	69.03713	30.95243
1631	69.3008	30.68013
1632	69.54094	30.40344
1633	69.80715	30.18295
1634	70.03413	29.95305
1635	70.26826	29.70303
1636	70.49543	29.47975
1637	70.69814	29.28214
1638	70.95189	29.04032
1639	71.13428	28.83874
1640	71.33139	28.64523
1641	71.5137	28.46497
1642	71.70948	28.27003
1643	71.87465	28.09528
1644	72.04959	27.9268
1645	72.20991	27.76834
1646	72.36446	27.62363
1647	72.5036	27.47744
1648	72.62891	27.34013
1649	72.76631	27.21729
1650	72.89195	27.0945
1651	73.01435	26.99261
1652	73.0731	26.87267
1653	73.19182	26.78311
1654	73.27215	26.69342
1655	73.35638	26.60974
1656	73.43646	26.54654
1657	73.50435	26.47767
1658	73.54961	26.42023
1659	73.56511	26.3464
1660	73.64396	26.35443
1661	73.72733	26.30057
1662	73.7076	26.27181
1663	73.72728	26.25217
1664	73.72272	26.2346
1665	73.7498	26.23472
1666	73.74045	26.23416
1667	73.74285	26.24133
1668	73.69905	26.24406
1669	73.70751	26.28171
1670	73.67804	26.30224
1671	73.61569	26.32777
1672	73.60191	26.37742
1673	73.56272	26.41154
1674	73.48818	26.4515
1675	73.45477	26.5307
1676	73.40903	26.5805
1677	73.32208	26.62728
1678	73.25986	26.69976
1679	73.1903	26.79495
1680	73.15844	26.86533
1681	73.01002	26.91453
1682	72.96967	27.01703
1683	72.82438	27.11446
1684	72.8012	27.19742
1685	72.64752	27.27126
1686	72.57794	27.38653
1687	72.48809	27.47942
1688	72.38939	27.57281
1689	72.27724	27.69034
1690	72.17533	27.79257
1691	72.08926	27.89455
1692	71.96126	28.00497
1693	71.81869	28.09962
1694	71.76227	28.23001
1695	71.63991	28.34279
1696	71.48224	28.43645
1697	71.40246	28.57338
1698	71.2885	28.68244
1699	71.1707	28.78343
1700	71.04335	28.91313
1701	70.9429	29.02547
1702	70.80327	29.14755
1703	70.70821	29.2531
1704	70.60803	29.38488
1705	70.4725	29.49337
1706	70.37039	29.60527
1707	70.25687	29.72338
1708	70.1043	29.82204
1709	70.00961	29.94312
1710	69.90281	30.04987
1711	69.79314	30.15658
1712	69.69975	30.2902
1713	69.5536	30.36536
1714	69.46335	30.48776
1715	69.3536	30.59464
1716	69.27014	30.70374
1717	69.14148	30.80047
1718	69.03076	30.89912
1719	68.9543	31.00344
1720	68.87576	31.11002
1721	68.74055	31.19657
1722	68.63844	31.29513
1723	68.59506	31.40201
1724	68.47453	31.48237
1725	68.35345	31.55067
1726	68.29922	31.67247
1727	68.22136	31.75412
1728	68.12483	31.82634
1729	68.01016	31.89107
1730	67.98136	32.0099
1731	67.88717	32.07219
1732	67.78359	32.12636
1733	67.71887	32.21854
1734	67.65802	32.31383
1735	67.58989	32.36747
1736	67.52731	32.42235
1737	67.40316	32.49643
1738	67.38895	32.57777
1739	67.32179	32.62925
1740	67.24504	32.68367
1741	67.19996	32.7578
1742	67.14449	32.80789
1743	67.09079	32.8622
1744	67.02749	32.91051
1745	66.98392	32.95294
1746	66.93129	33.01536
1747	66.89611	33.06287
1748	66.85383	33.09639
1749	66.79754	33.14975
1750	66.75836	33.19446
1751	66.7085	33.21393
1752	66.71593	33.26819
1753	66.64072	33.31059
1754	66.59615	33.3262
1755	66.57451	33.35962
1756	66.59649	33.40321
1757	66.50799	33.43449
1758	66.49809	33.45073
1759	66.47144	33.47925
1760	66.49028	33.49707
1761	66.37477	33.51412
1762	66.40299	33.53831
1763	66.38266	33.55888
1764	66.39188	33.56023
1765	66.32944	33.60553
1766	66.33975	33.60225
1767	66.33176	33.6192
1768	66.315	33.62483
1769	66.30141	33.63992
1770	66.28763	33.64005
1771	66.29251	33.6538
1772	66.30234	33.65978
1773	66.26959	33.66339
1774	66.27783	33.66875
1775	66.2875	33.66897
1776	66.27251	33.6729
1777	66.27349	33.67056
1778	66.28289	33.66951
1779	66.27533	33.66754
1780	66.29943	33.66114
1781	66.29352	33.65039
1782	66.25187	33.64129
1783	66.31561	33.6598
1784	66.32557	33.62398
1785	66.28689	33.62512
1786	66.33511	33.63491
1787	66.34878	33.61394
1788	66.35424	33.59969
1789	66.3384	33.58723
1790	66.386	33.57874
1791	66.38122	33.56217
1792	66.37848	33.55189
1793	66.415	33.53375
1794	66.41708	33.51849
1795	66.45044	33.50398
1796	66.43939	33.48984
1797	66.48741	33.47611
1798	66.46769	33.45323
1799	66.52015	33.44142
1800	66.49099	33.41612
1801	66.53605	33.40648
1802	66.56082	33.38233
1803	66.57842	33.36017
1804	66.59292	33.34507
1805	66.61711	33.317
1806	66.63233	33.30134
1807	66.66851	33.28463
1808	66.68752	33.25841
1809	66.70998	33.23663
1810	66.71844	33.21656
1811	66.75506	33.19943
1812	66.76944	33.1729
1813	66.79722	33.15644
1814	66.80651	33.12749
1815	66.83451	33.10756
1816	66.85996	33.08283
1817	66.88942	33.06072
1818	66.90759	33.0311
1819	66.92972	32.99641
1820	66.96076	32.98876
1821	66.99618	32.96456
1822	67.00848	32.93876
1823	67.02378	32.91628
1824	67.03572	32.87788
1825	67.07125	32.86317
1826	67.10042	32.84082
1827	67.12862	32.81482
1828	67.14754	32.79141
1829	67.16191	32.76114
1830	67.19414	32.73959
1831	67.23002	32.71802
1832	67.2442	32.69361
1833	67.27404	32.66664
1834	67.28105	32.63797
1835	67.32023	32.60452
1836	67.34239	32.58073
1837	67.3835	32.55633
1838	67.38161	32.5148
1839	67.41871	32.4949
1840	67.41507	32.46859
1841	67.42805	32.41409
1842	67.49328	32.4269
1843	67.52189	32.40244
1844	67.56115	32.37884
1845	67.57675	32.35271
1846	67.60653	32.32884
1847	67.61664	32.29009
1848	67.67239	32.27007
1849	67.69214	32.24942
1850	67.71023	32.21684
1851	67.73352	32.1879
1852	67.76118	32.16302
1853	67.79207	32.13311
1854	67.82633	32.09713
1855	67.85711	32.07436
1856	67.87876	32.04199
1857	67.90808	32.01441
1858	67.93486	31.99751
1859	67.96981	31.95077
1860	68.00236	31.92953
1861	68.02422	31.89858
1862	68.04698	31.86837
1863	68.08329	31.84475
1864	68.1137	31.81126
1865	68.12823	31.78191
1866	68.16681	31.74913
1867	68.20999	31.72024
1868	68.23965	31.68422
1869	68.2714	31.64684
1870	68.31396	31.61106
1871	68.34135	31.56916
1872	68.38652	31.52938
1873	68.43452	31.486
1874	68.47292	31.44889
1875	68.51031	31.40521
1876	68.54806	31.36574
1877	68.59391	31.33061
1878	68.62432	31.28806
1879	68.65586	31.25247
1880	68.69618	31.21613
1881	68.73549	31.18151
1882	68.77611	31.13917
1883	68.8149	31.10446
1884	68.84707	31.06265
1885	68.88604	31.01725
1886	68.93493	30.97688
1887	68.96803	30.92646
1888	69.01311	30.8871
1889	69.06249	30.8373
1890	69.11862	30.79537
1891	69.16717	30.74916
1892	69.19843	30.68733
1893	69.26009	30.65065
1894	69.30351	30.59757
1895	69.35865	30.54946
1896	69.40733	30.50568
1897	69.47107	30.45511
1898	69.52186	30.39798
1899	69.5573	30.34384
1900	69.63545	30.28524
1901	69.71161	30.22472
1902	69.74569	30.16639
1903	69.81322	30.09894
1904	69.8719	30.03344
1905	69.93562	29.96261
1906	70.00468	29.90406
1907	70.06698	29.84287
1908	70.12802	29.77704
1909	70.19909	29.75341
1910	70.2616	29.65396
1911	70.33691	29.58151
1912	70.39554	29.51647
1913	70.46041	29.44492
1914	70.53239	29.37717
1915	70.60646	29.30764
1916	70.67144	29.23476
1917	70.74655	29.15724
1918	70.81743	29.08674
1919	70.89525	29.0063
1920	70.98241	28.9308
1921	71.02912	28.84183
1922	71.1377	28.76749
1923	71.20814	28.69681
1924	71.30065	28.61206
1925	71.41242	28.5524
1926	71.46364	28.44673
1927	71.55305	28.36613
1928	71.63853	28.27562
1929	71.73298	28.19079
1930	71.80383	28.10189
1931	71.88852	28.0209
1932	71.98634	27.92954
1933	72.08308	27.83952
1934	72.17241	27.74627
1935	72.27093	27.65533
1936	72.35738	27.55767
1937	72.45821	27.46804
1938	72.55993	27.37037
1939	72.65716	27.27007
1940	72.75275	27.17423
1941	72.8531	27.07283
1942	72.95625	26.96994
1943	73.06545	26.86449
1944	73.15801	26.76644
1945	73.26002	26.65958
1946	73.36492	26.56046
1947	73.46688	26.45666
1948	73.579	26.3493
1949	73.70775	26.23989
1950	73.76237	26.12332
1951	73.89466	26.03713
1952	74.03923	25.91716
1953	74.08036	25.80709
1954	74.21501	25.68945
1955	74.34217	25.59809
1956	74.45507	25.47754
1957	74.57133	25.3637
1958	74.67237	25.24616
1959	74.78285	25.13735
1960	74.91654	25.01558
1961	75.03523	24.89615
1962	75.14672	24.78563
1963	75.25628	24.66654
1964	75.38247	24.5369
1965	75.50233	24.42881
1966	75.61298	24.31495
1967	75.74374	24.18578
1968	75.85352	24.06396
1969	75.98393	23.96076
1970	76.09444	23.83157
1971	76.22558	23.7017
1972	76.33378	23.59098
1973	76.4561	23.47287
1974	76.60663	23.34133
1975	76.69308	23.21809
1976	76.81893	23.11113
1977	76.94995	22.97498
1978	77.06705	22.84761
1979	77.19163	22.74661
1980	77.32481	22.60806
1981	77.43591	22.47717
1982	77.54862	22.37308
1983	77.67928	22.241
1984	77.79834	22.12229
1985	77.93034	21.99714
1986	78.04462	21.87358
1987	78.15981	21.75345
1988	78.30027	21.63718
1989	78.40622	21.51454
1990	78.52238	21.38948
1991	78.65834	21.28183
1992	78.73943	21.14949
1993	78.87376	21.02757
1994	78.99071	20.91853
1995	79.12006	20.80075
1996	79.2271	20.68025
1997	79.34845	20.56681
1998	79.4583	20.44635
1999	79.57916	20.33334
2000	79.76076	20.13682
2001	79.85032	20.02146
2002	79.99947	19.91082
2003	80.05781	19.80405
2004	80.17889	19.69153
2005	80.32386	19.58396
2006	80.39062	19.47101
2007	80.46585	19.37714
2008	80.64511	19.27679
2009	80.72484	19.1721
2010	80.7712	19.05779
2011	80.9089	18.98011
2012	81.0182	18.87533
2013	81.08519	18.77606
2014	81.17115	18.68439
2015	81.17588	18.58385
2016	81.43454	18.50412
2017	81.43758	18.41109
2018	81.50303	18.32232
2019	81.62748	18.24398
2020	81.68792	18.15782
2021	81.76645	18.07671
2022	81.8512	18.00685
2023	81.88054	17.91629
2024	81.98442	17.84732
2025	82.07024	17.78107
2026	82.10534	17.70223
2027	82.18555	17.63865
2028	82.25305	17.57944
2029	82.29136	17.50971
2030	82.36562	17.44757
2031	82.41474	17.39111
2032	82.46315	17.33873
2033	82.47788	17.2795
2034	82.58685	17.23455
2035	82.64026	17.19953
2036	82.60426	17.13072
2037	82.67556	17.09636
2038	82.75375	17.06447
2039	82.78894	17.02975
2040	82.76009	16.98018
2041	82.82988	16.95561
2042	82.84671	16.93271
2043	82.86779	16.89971
2044	82.85967	16.8736
2045	82.90701	16.85917
2046	82.91619	16.8394
2047	82.92964	16.82235
2048	82.91288	16.81691
2049	82.94342	16.80108
2050	82.94032	16.80136
2051	82.92738	16.79682
2052	82.9436	16.7946
2053	82.91417	16.79957
2054	82.93094	16.80784
2055	82.87338	16.81069
2056	82.92064	16.82826
2057	82.86116	16.83992
2058	82.84265	16.85909
2059	82.79369	16.87372
2060	82.85024	16.90237
2061	82.78548	16.93147
2062	82.72269	16.95656
2063	82.70934	16.99075
2064	82.64619	17.01513
2065	82.67133	17.07369
2066	82.60299	17.10593
2067	82.56153	17.14677
2068	82.52276	17.19433
2069	82.46216	17.24721
2070	82.39878	17.29568
2071	82.3794	17.34799
2072	82.28971	17.40706
2073	82.23193	17.46773
2074	82.19685	17.53102
2075	82.08917	17.59017
2076	82.03441	17.66154
2077	82.00533	17.7345
2078	81.93902	17.80861
2079	81.76215	17.86606
2080	81.77762	17.95304
2081	81.70741	18.03714
2082	81.60347	18.11414
2083	81.46426	18.19722
2084	81.43929	18.28147
2085	81.35405	18.37207
2086	81.24876	18.45549
2087	81.14484	18.55893
2088	81.06304	18.64696
2089	80.97374	18.74288
2090	80.87097	18.83769
2091	80.73896	18.93503
2092	80.68929	19.04225
2093	80.57699	19.14502
2094	80.42866	19.24705
2095	80.34675	19.353
2096	80.2571	19.45993
2097	80.11747	19.5702
2098	80.00748	19.67967
2099	79.92463	19.79402
2100	79.78787	19.90812
2101	79.64796	20.01527
2102	79.58527	20.13554
2103	79.45362	20.2497
2104	79.28846	20.35609
2105	79.19528	20.50125
2106	79.11707	20.61299
2107	78.94111	20.7253
2108	78.7965	20.83893
2109	78.69444	20.98357
2110	78.57317	21.09765
2111	78.45623	21.2174
2112	78.31056	21.34925
2113	78.18969	21.47621
2114	78.06399	21.60009
2115	77.93762	21.72365
2116	77.78645	21.84999
2117	77.66502	21.98258
2118	77.5481	22.11143
2119	77.39007	22.23745
2120	77.26544	22.37136
2121	77.16281	22.49805
2122	76.98299	22.62124
2123	76.87344	22.76429
2124	76.74226	22.88774
2125	76.63968	23.01926
2126	76.4258	23.14412
2127	76.32519	23.27856
2128	76.20266	23.41076
2129	76.11501	23.53856
2130	75.87955	23.6597
2131	75.79012	23.79706
2132	75.67282	23.93107
2133	75.51482	24.04825
2134	75.37385	24.17925
2135	75.23367	24.3096
2136	75.10721	24.43677
2137	74.96588	24.5637
2138	74.82344	24.69059
2139	74.69349	24.81564
2140	74.54361	24.93585
2141	74.43211	25.06343
2142	74.27726	25.18967
2143	74.14633	25.30829
2144	73.99291	25.43209
2145	73.89598	25.55684
2146	73.73145	25.67274
2147	73.60346	25.79717
2148	73.46239	25.92214
2149	73.33434	26.02828
2150	73.1963	26.14757
2151	73.06638	26.26727
2152	72.936	26.38387
2153	72.79651	26.49014
2154	72.66176	26.60225
2155	72.55966	26.72506
2156	72.40242	26.83553
2157	72.28322	26.95637
2158	72.15636	27.05908
2159	72.0314	27.17017
2160	71.90417	27.28242
2161	71.78399	27.39031
2162	71.6544	27.4939
2163	71.5197	27.60666
2164	71.40945	27.70909
2165	71.28671	27.81439
2166	71.16425	27.91164
2167	71.03374	28.0136
2168	70.91496	28.114
2169	70.79009	28.21902
2170	70.67587	28.31327
2171	70.55677	28.40465
2172	70.43407	28.50109
2173	70.29766	28.58956
2174	70.17919	28.68284
2175	70.04125	28.77517
2176	69.90935	28.86288
2177	69.79633	28.94148
2178	69.67155	29.03237
2179	69.53528	29.11367
2180	69.41003	29.1947
2181	69.25902	29.27925
2182	69.12106	29.35274
2183	69.00985	29.43427
2184	68.80888	29.49367
2185	68.69542	29.56803
2186	68.52807	29.64356
2187	68.35083	29.6937
2188	68.17658	29.75584
2189	67.99629	29.81442
2190	67.79336	29.85921
2191	67.60144	29.91468
2192	67.39967	29.9626
2193	67.19885	30.00743
2194	66.99427	30.0571
2195	66.77092	30.09354
2196	66.54411	30.1335
2197	66.32494	30.17042
2198	66.11338	30.20776
2199	65.88525	30.24229
2200	65.68087	30.27957
2201	65.43872	30.31238
2202	65.2611	30.34688
2203	65.05849	30.37418
2204	64.88807	30.41859
2205	64.69776	30.44422
2206	64.54443	30.48764
2207	64.38653	30.51091
2208	64.27288	30.5639
2209	64.15901	30.60059
2210	64.0535	30.64205
2211	63.98119	30.68922
2212	63.90682	30.72849
2213	63.85715	30.7813
2214	63.81688	30.82679
2215	63.77975	30.86759
2216	63.76406	30.91036
2217	63.76064	30.96298
2218	63.75958	31.01063
2219	63.76152	31.05422
2220	63.77435	31.09988
2221	63.79838	31.14489
2222	63.81162	31.18475
2223	63.82727	31.22753
2224	63.84515	31.26468
2225	63.87475	31.3108
2226	63.9008	31.3469
2227	63.92789	31.39181
2228	63.94323	31.42291
2229	63.95631	31.45119
2230	63.97751	31.48496
2231	63.99935	31.51758
2232	64.0148	31.54643
2233	64.03458	31.57278
2234	64.03517	31.59553
2235	64.04893	31.61478
2236	64.06527	31.64251
2237	64.07296	31.6628
2238	64.08492	31.68132
2239	64.08822	31.69622
2240	64.10269	31.71482
2241	64.11363	31.72952
2242	64.12386	31.74569
2243	64.13659	31.75584
2244	64.15748	31.76819
2245	64.1721	31.77901
2246	64.1906	31.78957
2247	64.20902	31.79797
2248	64.23673	31.80614
2249	64.25637	31.81
2250	64.28942	31.81947
2251	64.31605	31.82471
2252	64.35118	31.82654
2253	64.38528	31.82998
2254	64.42978	31.833
2255	64.47709	31.835
2256	64.51484	31.83874
2257	64.55599	31.84028
2258	64.61126	31.83415
2259	64.64948	31.83049
2260	64.71373	31.83547
2261	64.76339	31.83089
2262	64.81616	31.82357
2263	64.88099	31.81812
2264	64.94835	31.81207
2265	65.01193	31.80535
2266	65.0759	31.797
2267	65.13593	31.78626
2268	65.21385	31.77587
2269	65.27394	31.75984
2270	65.36408	31.75963
2271	65.41704	31.73793
2272	65.49403	31.72337
2273	65.57022	31.71135
2274	65.63374	31.68707
2275	65.70749	31.67773
2276	65.78402	31.65722
2277	65.85599	31.63742
2278	65.93024	31.621
2279	66.00426	31.60059
2280	66.07136	31.57865
2281	66.13391	31.55593
2282	66.21566	31.53367
2283	66.28184	31.50983
2284	66.35089	31.48671
2285	66.41263	31.46101
2286	66.48746	31.43844
2287	66.56018	31.4094
2288	66.62478	31.38043
2289	66.68787	31.3511
2290	66.76324	31.32674
2291	66.83374	31.29388
2292	66.90359	31.25995
2293	66.97737	31.23299
2294	67.04409	31.20143
2295	67.10963	31.16466
2296	67.17787	31.12896
2297	67.25319	31.09965
2298	67.3176	31.05668
2299	67.38544	31.02135
2300	67.45307	30.98025
2301	67.5239	30.94447
2302	67.59794	30.90278
2303	67.65948	30.86082
2304	67.7363	30.81937
2305	67.79354	30.7798
2306	67.87542	30.74302
2307	67.93119	30.69682
2308	68.00443	30.64901
2309	68.05859	30.60685
2310	68.13847	30.56409
2311	68.2043	30.5184
2312	68.2673	30.47657
2313	68.33483	30.43073
2314	68.40647	30.37586
2315	68.47438	30.33378
2316	68.54086	30.29383
2317	68.60948	30.24006
2318	68.67405	30.19159
2319	68.73647	30.13817
2320	68.80266	30.08416
2321	68.87715	30.04316
2322	68.92996	29.97563
2323	69.00369	29.93648
2324	69.06774	29.86357
2325	69.13864	29.82023
2326	69.16668	29.76365
2327	69.27593	29.72806
2328	69.34513	29.66118
2329	69.3797	29.61361
2330	69.48236	29.57102
2331	69.51652	29.50671
2332	69.5678	29.44336
2333	69.65079	29.39718
2334	69.72363	29.34413
2335	69.85246	29.28775
2336	69.83419	29.229
2337	69.90523	29.17456
2338	69.96946	29.12335
2339	70.03464	29.06154
2340	70.10036	29.01045
2341	70.15333	28.94907
2342	70.2243	28.8946
2343	70.29532	28.83947
2344	70.35128	28.77749
2345	70.40862	28.72411
2346	70.47581	28.66306
2347	70.54744	28.61054
2348	70.60266	28.55356
2349	70.66175	28.49828
2350	70.72785	28.43743
2351	70.78919	28.38257
2352	70.84258	28.32048
2353	70.89375	28.2715
2354	70.96547	28.20954
2355	71.03455	28.1586
2356	71.08156	28.10087
2357	71.12863	28.054
2358	71.22158	27.99341
2359	71.26935	27.93036
2360	71.30989	27.88525
2361	71.39526	27.81941
2362	71.44823	27.75364
2363	71.48647	27.71935
2364	71.56771	27.65897
2365	71.62663	27.59216
2366	71.65188	27.53913
2367	71.73495	27.48571
2368	71.79249	27.4276
2369	71.82165	27.36513
2370	71.91379	27.31781
2371	71.93086	27.25693
2372	72.02623	27.2059
2373	72.05498	27.15419
2374	72.11324	27.09429
2375	72.15782	27.03579
2376	72.2208	27.00109
2377	72.27464	26.9341
2378	72.33029	26.89513
2379	72.35822	26.81875
2380	72.43543	26.7885
2381	72.46982	26.71778
2382	72.51813	26.68726
2383	72.56379	26.61567
2384	72.61684	26.56942
2385	72.66481	26.5121
2386	72.71187	26.47183
2387	72.75021	26.41124
2388	72.81014	26.37103
2389	72.84395	26.30251
2390	72.89277	26.26535
2391	72.91999	26.20327
2392	72.95971	26.17132
2393	73.00871	26.10801
2394	73.04943	26.06587
2395	73.10316	26.01826
2396	73.13763	25.97174
2397	73.18869	25.92577
2398	73.19033	25.87284
2399	73.23262	25.82525
2400	73.25266	25.78313
2401	73.31169	25.74924
2402	73.3247	25.69759
2403	73.37086	25.65317
2404	73.40012	25.60658
2405	73.43925	25.56293
2406	73.48255	25.51695
2407	73.50333	25.47283
2408	73.54114	25.43124
2409	73.56499	25.38867
2410	73.59693	25.35173
2411	73.62632	25.30709
2412	73.65417	25.26321
2413	73.65447	25.21992
2414	73.70137	25.18945
2415	73.72052	25.15094
2416	73.74546	25.09594
2417	73.76225	25.05843
2418	73.79326	25.01727
2419	73.82895	24.98158
2420	73.84238	24.944
2421	73.84833	24.90289
2422	73.88	24.87434
2423	73.88514	24.8333
2424	73.90779	24.79912
2425	73.91859	24.7667
2426	73.93314	24.7322
2427	73.95421	24.70164
2428	73.98756	24.67158
2429	74.00053	24.63659
2430	74.01582	24.60714
2431	74.00926	24.56205
2432	74.03324	24.53056
2433	74.03491	24.5009
2434	74.0415	24.46615
2435	74.09037	24.44144
2436	74.07009	24.41131
2437	74.1102	24.38479
2438	74.11623	24.35453
2439	74.12651	24.32593
2440	74.10932	24.29078
2441	74.13093	24.2703
2442	74.14337	24.24463
2443	74.15535	24.22097
2444	74.1595	24.18762
2445	74.17961	24.17623
2446	74.18096	24.15373
2447	74.18286	24.13203
2448	74.19435	24.10915
2449	74.19015	24.08776
2450	74.19128	24.07227
2451	74.20349	24.04396
2452	74.19547	24.02237
2453	74.22413	24.00132
2454	74.20184	23.98054
2455	74.21109	23.95213
2456	74.23334	23.94549
2457	74.21049	23.92021
2458	74.22441	23.9067
2459	74.21906	23.88475
2460	74.21453	23.86764
2461	74.21808	23.84579
2462	74.21513	23.83558
2463	74.22166	23.82098
2464	74.19248	23.79175
2465	74.21009	23.78311
2466	74.19693	23.76125
2467	74.20033	23.75202
2468	74.17819	23.7347
2469	74.18221	23.72392
2470	74.17773	23.71221
2471	74.18113	23.70539
2472	74.15137	23.68979
2473	74.14413	23.67455
2474	74.13146	23.66302
2475	74.13017	23.65315
2476	74.12676	23.63963
2477	74.10573	23.63225
2478	74.09287	23.62101
2479	74.07811	23.6062
2480	74.07349	23.60368
2481	74.05841	23.58528
2482	74.01672	23.5738
2483	74.02044	23.56578
2484	74.00273	23.55509
2485	73.99365	23.55123
2486	73.96602	23.53606
2487	73.94173	23.52627
2488	73.93214	23.51883
2489	73.90691	23.51275
2490	73.87996	23.50024
2491	73.85782	23.4842
2492	73.8313	23.48371
2493	73.81055	23.47625
2494	73.79148	23.47258
2495	73.75862	23.45757
2496	73.72983	23.45525
2497	73.71567	23.45846
2498	73.69479	23.44922
2499	73.66543	23.44024
2500	73.6549	23.44671
